Scan started at 15:00:19 30/09/2014
Time (s)	x (nT)	y (nT)	z (nT)	Frequency (Hz)	x (nT)	y (nT)	z (nT)
0	-367.96	557.145	-23.0691	0.195622	47.2438	69.8552	2.49662	
0.00499208	-367.857	556.99	-23.277	0.293434	33.1353	53.6983	2.28109	
0.00998416	-367.792	556.82	-23.5486	0.391245	12.2716	23.4238	1.16542	
0.0149762	-367.932	556.96	-23.3995	0.489056	20.1574	29.2691	1.07703	
0.0199683	-367.997	557.125	-23.1248	0.586867	11.2815	15.4205	0.911236	
0.0249604	-367.858	556.984	-23.2675	0.684678	13.7665	21.8719	0.728973	
0.0299525	-367.787	556.827	-23.5467	0.782489	7.23238	12.2705	0.480473	
0.0349446	-367.926	556.976	-23.4095	0.880301	10.4553	16.0515	0.547816	
0.0399366	-367.999	557.134	-23.1352	0.978112	6.47439	9.44619	0.470464	
0.0449287	-367.867	556.987	-23.2743	1.07592	8.4243	12.9292	0.3487	
0.0499208	-367.801	556.82	-23.5524	1.17373	5.46998	8.52036	0.325553	
0.0549129	-367.938	556.961	-23.4084	1.27155	6.86517	10.7048	0.330163	
0.059905	-367.997	557.124	-23.1205	1.36936	4.9793	7.66475	0.273443	
0.064897	-367.857	556.991	-23.2629	1.46717	5.91245	9.10932	0.246586	
0.0698891	-367.796	556.843	-23.5501	1.56498	4.43952	6.83757	0.23406	
0.0748812	-367.931	556.983	-23.4169	1.66279	4.9915	7.70983	0.226511	
0.0798733	-367.993	557.139	-23.1276	1.7606	4.17867	6.43081	0.196597	
0.0848654	-367.865	556.999	-23.2577	1.85841	4.39837	6.8026	0.196547	
0.0898574	-367.806	556.835	-23.5427	1.95622	3.86926	5.98215	0.18365	
0.0948495	-367.935	556.968	-23.4056	2.05403	3.78053	5.8501	0.177166	
0.0998416	-367.998	557.131	-23.1195	2.15185	3.68084	5.66123	0.171727	
0.104834	-367.86	556.998	-23.2593	2.24966	3.36822	5.17824	0.162418	
0.109826	-367.797	556.84	-23.5505	2.34747	3.46869	5.37109	0.158271	
0.114818	-367.935	556.972	-23.4108	2.44528	2.96788	4.60169	0.146879	
0.11981	-367.996	557.127	-23.118	2.54309	3.30372	5.08711	0.148584	
0.124802	-367.864	556.992	-23.2568	2.6409	2.64034	4.05226	0.133014	
0.129794	-367.797	556.838	-23.5545	2.73871	3.1695	4.90235	0.138364	
0.134786	-367.934	556.976	-23.4152	2.83652	2.33934	3.60938	0.124521	
0.139778	-367.997	557.131	-23.1174	2.93434	3.01825	4.65607	0.123999	
0.14477	-367.859	557	-23.2565	3.03215	2.14439	3.30547	0.118858	
0.149762	-367.796	556.847	-23.551	3.12996	2.87572	4.44217	0.114163	
0.154754	-367.924	556.981	-23.4138	3.22777	1.91584	2.9611	0.108532	
0.159747	-367.993	557.138	-23.1176	3.32558	2.774	4.27465	0.110952	
0.164739	-367.87	556.995	-23.2551	3.42339	1.73148	2.66073	0.101938	
0.169731	-367.806	556.836	-23.5578	3.5212	2.65059	4.1063	0.111135	
0.174723	-367.934	556.976	-23.4176	3.61901	1.58661	2.43152	0.0992717	
0.179715	-367.987	557.131	-23.1112	3.71683	2.54842	3.93326	0.107433	
0.184707	-367.847	556.998	-23.2499	3.81464	1.4718	2.26542	0.0922347	
0.189699	-367.787	556.848	-23.5443	3.91245	2.41046	3.73423	0.0980185	
0.194691	-367.925	556.989	-23.4091	4.01026	1.42098	2.19453	0.0894409	
0.199683	-367.991	557.143	-23.1205	4.10807	2.31857	3.5778	0.0906658	
0.204675	-367.862	557	-23.2603	4.20588	1.2975	1.99294	0.0821341	
0.209667	-367.799	556.838	-23.5602	4.30369	2.21154	3.4215	0.0882241	
0.214659	-367.939	556.969	-23.4225	4.4015	1.27353	1.96268	0.0822522	
0.219652	-368.004	557.131	-23.1182	4.49931	2.1077	3.25927	0.0811648	
0.224644	-367.864	557.009	-23.2546	4.59713	1.24006	1.90126	0.0755472	
0.229636	-367.797	556.855	-23.5551	4.69494	2.00155	3.09905	0.0825297	
0.234628	-367.921	556.982	-23.4158	4.79275	1.19687	1.83229	0.072727	
0.23962	-367.983	557.135	-23.1148	4.89056	1.91416	2.95674	0.079461	
0.244612	-367.863	557	-23.2488	4.98837	1.22233	1.88553	0.0706408	
0.249604	-367.795	556.843	-23.5469	5.08618	1.78551	2.75887	0.0728188	
0.254596	-367.924	556.974	-23.4146	5.18399	1.20525	1.86573	0.0690957	
0.259588	-367.995	557.124	-23.1162	5.2818	1.71412	2.64328	0.0707604	
0.26458	-367.867	557	-23.2526	5.37962	1.20422	1.84567	0.0643186	
0.269572	-367.799	556.853	-23.5588	5.47743	1.60385	2.48226	0.0685952	
0.274564	-367.92	556.979	-23.4225	5.57524	1.21215	1.8699	0.0650314	
0.279556	-367.987	557.132	-23.1149	5.67305	1.51788	2.3428	0.0616936	
0.284549	-367.862	557.009	-23.2528	5.77086	1.22877	1.89373	0.0635983	
0.289541	-367.797	556.848	-23.5598	5.86867	1.41678	2.18745	0.0633616	
0.294533	-367.927	556.963	-23.4199	5.96648	1.2299	1.88818	0.0595749	
0.299525	-367.989	557.127	-23.1151	6.06429	1.34017	2.06937	0.0605637	
0.304517	-367.863	557.01	-23.2505	6.1621	1.23891	1.91853	0.0606944	
0.309509	-367.797	556.851	-23.5559	6.25992	1.2446	1.92254	0.0588937	
0.314501	-367.917	556.97	-23.4271	6.35773	1.25473	1.9281	0.056337	
0.319493	-367.986	557.126	-23.1225	6.45554	1.1618	1.78963	0.0559819	
0.324485	-367.863	557.008	-23.2487	6.55335	1.245	1.92397	0.0574644	
0.329477	-367.804	556.844	-23.551	6.65116	1.09324	1.68843	0.0552596	
0.334469	-367.932	556.964	-23.4182	6.74897	1.26151	1.94623	0.0552671	
0.339461	-367.983	557.13	-23.1135	6.84678	1.00056	1.54513	0.0524468	
0.344454	-367.858	557.008	-23.2527	6.94459	1.25154	1.93488	0.0547473	
0.349446	-367.803	556.851	-23.5646	7.04241	0.952131	1.46165	0.0522869	
0.354438	-367.932	556.974	-23.4287	7.14022	1.24927	1.92686	0.0541651	
0.35943	-367.989	557.131	-23.118	7.23803	0.868699	1.3474	0.045504	
0.364422	-367.864	557.014	-23.2536	7.33584	1.24126	1.91601	0.0505627	
0.369414	-367.807	556.851	-23.5587	7.43365	0.837801	1.28636	0.0473297	
0.374406	-367.924	556.958	-23.4183	7.53146	1.22262	1.89071	0.0501389	
0.379398	-367.983	557.119	-23.1079	7.62927	0.769218	1.18565	0.0457397	
0.38439	-367.865	557.015	-23.2425	7.72708	1.21534	1.87719	0.0491441	
0.389382	-367.803	556.86	-23.5577	7.82489	0.740202	1.13598	0.044477	
0.394374	-367.931	556.978	-23.4293	7.92271	1.19294	1.85103	0.0473458	
0.399366	-367.999	557.129	-23.1157	8.02052	0.698053	1.07032	0.0444309	
0.404358	-367.867	557.012	-23.2452	8.11833	1.17066	1.8086	0.045991	
0.409351	-367.801	556.856	-23.553	8.21614	0.681499	1.04637	0.0426541	
0.414343	-367.923	556.967	-23.4173	8.31395	1.14713	1.77612	0.0451485	
0.419335	-367.985	557.129	-23.11	8.41176	0.660338	1.0191	0.0423996	
0.424327	-367.863	557.024	-23.2502	8.50957	1.1172	1.72612	0.0441934	
0.429319	-367.803	556.869	-23.5574	8.60738	0.653756	1.00376	0.0405778	
0.434311	-367.928	556.976	-23.4132	8.7052	1.09069	1.68631	0.0432869	
0.439303	-367.988	557.13	-23.1062	8.80301	0.647393	0.994047	0.0399535	
0.444295	-367.871	557.018	-23.2502	8.90082	1.05689	1.63813	0.0419806	
0.449287	-367.805	556.855	-23.5598	8.99863	0.651073	0.997262	0.038852	
0.454279	-367.923	556.954	-23.4211	9.09644	1.02439	1.58147	0.0410949	
0.459271	-367.983	557.118	-23.1138	9.19425	0.658859	1.01703	0.0392875	
0.464263	-367.86	557.022	-23.2462	9.29206	0.983694	1.52025	0.0401929	
0.469256	-367.801	556.869	-23.5474	9.38987	0.673771	1.03807	0.0381932	
0.474248	-367.921	556.975	-23.4131	9.48768	0.948351	1.46334	0.0397804	
0.47924	-367.984	557.128	-23.1131	9.5855	0.682241	1.05146	0.0368203	
0.484232	-367.866	557.021	-23.2494	9.68331	0.9076	1.4016	0.03806	
0.489224	-367.8	556.847	-23.549	9.78112	0.701065	1.08011	0.0369442	
0.494216	-367.918	556.947	-23.4149	9.87893	0.868081	1.34049	0.0375391	
0.499208	-367.98	557.116	-23.1068	9.97674	0.713589	1.10273	0.036427	
0.5042	-367.863	557.02	-23.2472	10.0746	0.826162	1.27383	0.0362953	
0.509192	-367.809	556.872	-23.5557	10.1724	0.730165	1.12702	0.0357985	
0.514184	-367.928	556.971	-23.4178	10.2702	0.784989	1.21026	0.0356661	
0.519176	-367.981	557.128	-23.1181	10.368	0.74411	1.15015	0.0349156	
0.524168	-367.86	557.028	-23.2564	10.4658	0.742755	1.14829	0.0346972	
0.52916	-367.803	556.859	-23.5597	10.5636	0.758531	1.16933	0.0352699	
0.534153	-367.916	556.951	-23.4192	10.6614	0.701432	1.08325	0.0335194	
0.539145	-367.981	557.117	-23.1118	10.7592	0.768003	1.18705	0.0349687	
0.544137	-367.857	557.031	-23.2484	10.857	0.66343	1.02283	0.0326336	
0.549129	-367.791	556.875	-23.5478	10.9549	0.778804	1.20364	0.0342629	
0.554121	-367.924	556.966	-23.4168	11.0527	0.622434	0.962151	0.0327659	
0.559113	-367.984	557.124	-23.1173	11.1505	0.786043	1.21286	0.0329384	
0.564105	-367.86	557.028	-23.2462	11.2483	0.589693	0.908965	0.0318508	
0.569097	-367.803	556.863	-23.5506	11.3461	0.788685	1.21971	0.0328544	
0.574089	-367.918	556.957	-23.4105	11.4439	0.556213	0.856842	0.030831	
0.579081	-367.975	557.119	-23.104	11.5417	0.79347	1.2252	0.0324449	
0.584073	-367.859	557.037	-23.2508	11.6395	0.523921	0.807933	0.0303746	
0.589065	-367.804	556.879	-23.5591	11.7373	0.791478	1.22367	0.033289	
0.594058	-367.925	556.958	-23.416	11.8352	0.502478	0.771015	0.0292862	
0.59905	-367.984	557.115	-23.1133	11.933	0.788978	1.21942	0.0308704	
0.604042	-367.866	557.029	-23.2477	12.0308	0.476492	0.733872	0.0296367	
0.609034	-367.803	556.862	-23.5482	12.1286	0.783517	1.2105	0.0314086	
0.614026	-367.917	556.946	-23.4149	12.2264	0.463793	0.712275	0.0286793	
0.619018	-367.978	557.113	-23.1149	12.3242	0.774669	1.19773	0.0304949	
0.62401	-367.86	557.031	-23.249	12.422	0.448261	0.690023	0.0287284	
0.629002	-367.8	556.873	-23.5449	12.5198	0.766111	1.18285	0.0307101	
0.633994	-367.919	556.957	-23.4156	12.6176	0.441415	0.68065	0.0281035	
0.638986	-367.983	557.111	-23.1168	12.7155	0.751369	1.16124	0.029307	
0.643978	-367.87	557.028	-23.2468	12.8133	0.441882	0.677866	0.0275266	
0.64897	-367.809	556.867	-23.5472	12.9111	0.73587	1.13873	0.0295674	
0.653962	-367.928	556.943	-23.4085	13.0089	0.442056	0.681165	0.0266494	
0.658955	-367.989	557.113	-23.1107	13.1067	0.719354	1.11123	0.0282887	
0.663947	-367.869	557.042	-23.2525	13.2045	0.449176	0.692405	0.0267856	
0.668939	-367.802	556.882	-23.552	13.3023	0.699068	1.08035	0.028288	
0.673931	-367.913	556.958	-23.412	13.4001	0.455899	0.704412	0.0262557	
0.678923	-367.977	557.112	-23.1107	13.4979	0.680461	1.05095	0.0278781	
0.683915	-367.865	557.033	-23.242	13.5958	0.467332	0.722425	0.0267782	
0.688907	-367.804	556.87	-23.5325	13.6936	0.65615	1.01284	0.0272993	
0.693899	-367.922	556.942	-23.4078	13.7914	0.480717	0.742179	0.0257878	
0.698891	-367.981	557.11	-23.1233	13.8892	0.632496	0.97701	0.0271657	
0.703883	-367.866	557.042	-23.2529	13.987	0.49473	0.765249	0.0257877	
0.708875	-367.805	556.883	-23.5449	14.0848	0.608247	0.938454	0.0256501	
0.713867	-367.919	556.953	-23.4159	14.1826	0.507323	0.784064	0.0258756	
0.71886	-367.986	557.105	-23.1187	14.2804	0.581178	0.897667	0.0255058	
0.723852	-367.864	557.031	-23.2467	14.3782	0.524228	0.806354	0.0250477	
0.728844	-367.797	556.87	-23.5435	14.4761	0.554366	0.858636	0.0250289	
0.733836	-367.91	556.939	-23.4125	14.5739	0.535438	0.825601	0.0248832	
0.738828	-367.974	557.106	-23.1201	14.6717	0.528846	0.81651	0.0251601	
0.74382	-367.862	557.05	-23.2506	14.7695	0.548619	0.845955	0.0249552	
0.748812	-367.795	556.892	-23.5421	14.8673	0.501007	0.77398	0.0243555	
0.753804	-367.904	556.951	-23.4058	14.9651	0.558861	0.861604	0.0248826	
0.758796	-367.965	557.108	-23.1196	15.0629	0.476804	0.736517	0.0237025	
0.763788	-367.86	557.04	-23.2523	15.1607	0.568316	0.876891	0.0244957	
0.76878	-367.793	556.879	-23.5319	15.2585	0.449853	0.695566	0.0239799	
0.773772	-367.901	556.945	-23.4068	15.3564	0.576282	0.888065	0.0243449	
0.778764	-367.973	557.106	-23.1247	15.4542	0.427596	0.659328	0.0227269	
0.783757	-367.868	557.049	-23.246	15.552	0.580934	0.897907	0.0245927	
0.788749	-367.802	556.89	-23.5215	15.6498	0.406021	0.624782	0.0228334	
0.793741	-367.906	556.95	-23.4006	15.7476	0.585494	0.90463	0.0243249	
0.798733	-367.966	557.109	-23.124	15.8454	0.385402	0.593366	0.0222029	
0.803725	-367.861	557.049	-23.2482	15.9432	0.58803	0.907477	0.0233704	
0.808717	-367.805	556.882	-23.5269	16.041	0.367467	0.567222	0.0227513	
0.813709	-367.913	556.931	-23.402	16.1388	0.587318	0.907362	0.0232868	
0.818701	-367.974	557.1	-23.1245	16.2367	0.355428	0.546944	0.0210411	
0.823693	-367.873	557.062	-23.2452	16.3345	0.585148	0.90443	0.0236322	
0.828685	-367.813	556.902	-23.5214	16.4323	0.343227	0.528481	0.0219853	
0.833677	-367.91	556.939	-23.4059	16.5301	0.581572	0.897971	0.0227273	
0.838669	-367.967	557.096	-23.134	16.6279	0.337995	0.519823	0.0215065	
0.843661	-367.873	557.047	-23.2572	16.7257	0.575088	0.889073	0.0231294	
0.848654	-367.814	556.884	-23.5355	16.8235	0.333766	0.513023	0.0209033	
0.853646	-367.904	556.937	-23.4125	16.9213	0.567582	0.876908	0.0222821	
0.858638	-367.964	557.101	-23.124	17.0191	0.334336	0.514021	0.0208643	
0.86363	-367.876	557.058	-23.2372	17.117	0.557706	0.861627	0.0221981	
0.868622	-367.813	556.9	-23.5164	17.2148	0.33805	0.519692	0.019946	
0.873614	-367.903	556.94	-23.4036	17.3126	0.546241	0.844392	0.0221805	
0.878606	-367.967	557.097	-23.1361	17.4104	0.344244	0.529492	0.0205378	
0.883598	-367.878	557.056	-23.2521	17.5082	0.533584	0.823911	0.0213998	
0.88859	-367.815	556.889	-23.5215	17.606	0.351942	0.542294	0.0206296	
0.893582	-367.901	556.928	-23.4102	17.7038	0.518545	0.801397	0.0213025	
0.898574	-367.966	557.101	-23.1351	17.8016	0.363009	0.559018	0.0202162	
0.903566	-367.876	557.075	-23.2401	17.8994	0.503234	0.777552	0.0213555	
0.908559	-367.81	556.909	-23.5192	17.9973	0.373237	0.574986	0.0204382	
0.913551	-367.895	556.931	-23.4242	18.0951	0.485967	0.750449	0.0207271	
0.918543	-367.955	557.09	-23.1534	18.1929	0.386042	0.594399	0.0199937	
0.923535	-367.874	557.06	-23.2415	18.2907	0.468478	0.723405	0.0205713	
0.928527	-367.811	556.896	-23.505	18.3885	0.396846	0.613188	0.0197777	
0.933519	-367.887	556.926	-23.4205	18.4863	0.449855	0.693387	0.0200108	
0.938511	-367.96	557.094	-23.1573	18.5841	0.409168	0.631515	0.0198901	
0.943503	-367.887	557.071	-23.2355	18.6819	0.430659	0.664573	0.0197225	
0.948495	-367.815	556.908	-23.4987	18.7797	0.420423	0.648716	0.0195944	
0.953487	-367.889	556.931	-23.4221	18.8776	0.410624	0.634035	0.0195088	
0.958479	-367.958	557.092	-23.1579	18.9754	0.431729	0.666314	0.0195965	
0.963471	-367.891	557.066	-23.2311	19.0732	0.39115	0.603738	0.0188386	
0.968463	-367.826	556.904	-23.4982	19.171	0.440429	0.679861	0.0197452	
0.973456	-367.884	556.925	-23.4297	19.2688	0.371819	0.57401	0.0188196	
0.978448	-367.949	557.091	-23.1621	19.3666	0.449474	0.694169	0.019051	
0.98344	-367.889	557.079	-23.2261	19.4644	0.353247	0.54496	0.0187392	
0.988432	-367.819	556.917	-23.4921	19.5622	0.455929	0.704973	0.0194077	
0.993424	-367.877	556.928	-23.4313	19.66	0.336094	0.517236	0.0179272	
0.998416	-367.952	557.084	-23.1667	19.7579	0.46154	0.7135	0.0193944	
1.00341	-367.91	557.067	-23.2238	19.8557	0.319424	0.492617	0.0182702	
1.0084	-367.834	556.903	-23.4952	19.9535	0.466418	0.720605	0.0188332	
1.01339	-367.874	556.926	-23.444	20.0513	0.304648	0.469071	0.0179385	
1.01838	-367.953	557.095	-23.1724	20.1491	0.468326	0.723872	0.019213	
1.02338	-367.912	557.076	-23.2217	20.2469	0.292678	0.450455	0.0176122	
1.02837	-367.83	556.911	-23.4885	20.3447	0.47006	0.725879	0.0186836	
1.03336	-367.87	556.927	-23.442	20.4425	0.282201	0.434373	0.0172165	
1.03835	-367.951	557.086	-23.1742	20.5403	0.46873	0.724472	0.0189755	
1.04334	-367.912	557.069	-23.2178	20.6382	0.275797	0.423098	0.0171594	
1.04834	-367.83	556.903	-23.4849	20.736	0.466831	0.721244	0.018683	
1.05333	-367.866	556.918	-23.4436	20.8338	0.270439	0.416353	0.0171139	
1.05832	-367.947	557.09	-23.1726	20.9316	0.462689	0.714667	0.01848	
1.06331	-367.92	557.091	-23.2003	21.0294	0.269845	0.414352	0.016964	
1.06831	-367.835	556.926	-23.4829	21.1272	0.45725	0.706442	0.0183192	
1.0733	-367.852	556.927	-23.4655	21.225	0.270422	0.41634	0.0167599	
1.07829	-367.945	557.087	-23.1827	21.3228	0.450451	0.695502	0.018244	
1.08328	-367.928	557.07	-23.205	21.4206	0.274639	0.422174	0.0168352	
1.08827	-367.833	556.908	-23.4746	21.5185	0.441565	0.682426	0.0178666	
1.09327	-367.854	556.922	-23.4502	21.6163	0.280447	0.431884	0.0166183	
1.09826	-367.947	557.089	-23.1851	21.7141	0.432342	0.66734	0.0171198	
1.10325	-367.927	557.087	-23.2001	21.8119	0.287616	0.443674	0.0162758	
1.10824	-367.833	556.922	-23.4766	21.9097	0.420887	0.649921	0.0171705	
1.11323	-367.844	556.915	-23.4688	22.0075	0.297177	0.458049	0.0163088	
1.11823	-367.944	557.077	-23.1855	22.1053	0.408868	0.631347	0.0172053	
1.12322	-367.941	557.081	-23.196	22.2031	0.306666	0.473494	0.016434	
1.12821	-367.843	556.917	-23.4761	22.301	0.395516	0.610789	0.0168343	
1.1332	-367.844	556.915	-23.4636	22.3988	0.317426	0.489347	0.0162644	
1.13819	-367.936	557.084	-23.1832	22.4966	0.381598	0.589372	0.0167425	
1.14319	-367.928	557.093	-23.1875	22.5944	0.327596	0.505771	0.0163122	
1.14818	-367.831	556.922	-23.4677	22.6922	0.366828	0.566473	0.0163734	
1.15317	-367.832	556.908	-23.4713	22.79	0.338534	0.522083	0.0161203	
1.15816	-367.941	557.075	-23.1942	22.8878	0.351555	0.542957	0.0161839	
1.16315	-367.952	557.083	-23.1902	22.9856	0.347992	0.537424	0.016413	
1.16815	-367.846	556.916	-23.4667	23.0834	0.336477	0.518863	0.0157281	
1.17314	-367.835	556.91	-23.4761	23.1813	0.357551	0.552063	0.0163734	
1.17813	-367.934	557.087	-23.1904	23.2791	0.320799	0.494927	0.0155641	
1.18312	-367.944	557.101	-23.1749	23.3769	0.366048	0.565348	0.0159575	
1.18812	-367.843	556.932	-23.4696	23.4747	0.30558	0.4711	0.0160092	
1.19311	-367.825	556.914	-23.4885	23.5725	0.373628	0.576705	0.0159545	
1.1981	-367.931	557.07	-23.197	23.6703	0.290419	0.448474	0.0152852	
1.20309	-367.954	557.082	-23.1766	23.7681	0.380114	0.586827	0.0161212	
1.20808	-367.847	556.921	-23.4678	23.8659	0.276599	0.426515	0.0151584	
1.21308	-367.823	556.904	-23.4945	23.9637	0.385174	0.594998	0.0160176	
1.21807	-367.932	557.074	-23.1984	24.0616	0.263869	0.406522	0.0150296	
1.22306	-367.959	557.096	-23.1624	24.1594	0.389137	0.600961	0.0159848	
1.22805	-367.847	556.926	-23.4614	24.2572	0.252428	0.388723	0.0147542	
1.23304	-367.819	556.913	-23.5018	24.355	0.391554	0.605324	0.0158803	
1.23804	-367.934	557.08	-23.2022	24.4528	0.243067	0.373667	0.0146786	
1.24303	-367.961	557.091	-23.1578	24.5506	0.392667	0.607214	0.0159271	
1.24802	-367.845	556.922	-23.4514	24.6484	0.235512	0.361474	0.0145806	
1.25301	-367.814	556.907	-23.4933	24.7462	0.392518	0.606827	0.0154494	
1.258	-367.934	557.076	-23.201	24.844	0.230191	0.353947	0.0145264	
1.263	-367.967	557.094	-23.158	24.9419	0.391061	0.604454	0.0151804	
1.26799	-367.842	556.921	-23.4572	25.0397	0.226882	0.34908	0.0149476	
1.27298	-367.807	556.898	-23.5019	25.1375	0.388593	0.599054	0.0154831	
1.27797	-367.932	557.067	-23.1934	25.2353	0.226534	0.350045	0.0143736	
1.28296	-367.972	557.092	-23.1448	25.3331	0.383916	0.593434	0.01583	
1.28796	-367.843	556.929	-23.4506	25.4309	0.228558	0.351502	0.0137658	
1.29295	-367.803	556.903	-23.5082	25.5287	0.378455	0.5851	0.0151564	
1.29794	-367.929	557.072	-23.2056	25.6265	0.232405	0.357448	0.0142766	
1.30293	-367.974	557.1	-23.1447	25.7243	0.371859	0.574409	0.0154081	
1.30792	-367.845	556.935	-23.4478	25.8222	0.237999	0.366549	0.0140395	
1.31292	-367.797	556.906	-23.5059	25.92	0.363826	0.562232	0.0147415	
1.31791	-367.93	557.07	-23.2018	26.0178	0.245467	0.377338	0.0139071	
1.3229	-367.98	557.089	-23.1395	26.1156	0.354809	0.54844	0.0147856	
1.32789	-367.856	556.922	-23.4519	26.2134	0.253155	0.390015	0.0137077	
1.33289	-367.802	556.9	-23.5211	26.3112	0.344752	0.532899	0.0142787	
1.33788	-367.927	557.072	-23.2095	26.409	0.262277	0.404364	0.0140163	
1.34287	-367.98	557.106	-23.1447	26.5068	0.334361	0.515935	0.0144167	
1.34786	-367.844	556.932	-23.4584	26.6046	0.271203	0.418453	0.0139884	
1.35285	-367.795	556.894	-23.5228	26.7025	0.322881	0.498146	0.0143969	
1.35785	-367.937	557.062	-23.2113	26.8003	0.28088	0.43316	0.0137277	
1.36284	-367.991	557.097	-23.1389	26.8981	0.310491	0.479518	0.0140527	
1.36783	-367.846	556.927	-23.4501	26.9959	0.289864	0.44741	0.0139759	
1.37282	-367.787	556.902	-23.5283	27.0937	0.298111	0.459645	0.0138574	
1.37781	-367.933	557.077	-23.2052	27.1915	0.298685	0.461191	0.0138456	
1.38281	-367.998	557.105	-23.1263	27.2893	0.285352	0.439905	0.0136833	
1.3878	-367.853	556.929	-23.4566	27.3871	0.306748	0.474126	0.0136477	
1.39279	-367.79	556.89	-23.5372	27.4849	0.272388	0.419957	0.0132949	
1.39778	-367.932	557.071	-23.2138	27.5828	0.314596	0.485713	0.0136271	
1.40277	-367.993	557.105	-23.129	27.6806	0.259503	0.400642	0.0133561	
1.40777	-367.849	556.921	-23.443	27.7784	0.321354	0.496178	0.0135321	
1.41276	-367.789	556.889	-23.5313	27.8762	0.247538	0.381414	0.0130666	
1.41775	-367.938	557.071	-23.2027	27.974	0.326811	0.505066	0.0138289	
1.42274	-367.997	557.118	-23.1127	28.0718	0.235681	0.363623	0.0128933	
1.42773	-367.84	556.944	-23.4442	28.1696	0.331705	0.512606	0.0136144	
1.43273	-367.772	556.894	-23.5405	28.2674	0.225467	0.346708	0.0129467	
1.43772	-367.933	557.063	-23.2164	28.3652	0.334964	0.518176	0.0136617	
1.44271	-368.006	557.1	-23.121	28.4631	0.216074	0.332558	0.0126385	
1.4477	-367.85	556.927	-23.4504	28.5609	0.33761	0.522007	0.0136131	
1.4527	-367.786	556.892	-23.5433	28.6587	0.208229	0.320351	0.0129505	
1.45769	-367.943	557.069	-23.2114	28.7565	0.338771	0.523873	0.0133595	
1.46268	-368.004	557.115	-23.1082	28.8543	0.202148	0.31109	0.0126365	
1.46767	-367.842	556.938	-23.4432	28.9521	0.339201	0.524035	0.0136232	
1.47266	-367.779	556.888	-23.55	29.0499	0.198241	0.304919	0.012356	
1.47766	-367.946	557.062	-23.2173	29.1477	0.337841	0.522366	0.0133187	
1.48265	-368.015	557.103	-23.1129	29.2455	0.196387	0.301852	0.0122958	
1.48764	-367.851	556.931	-23.4399	29.3434	0.335855	0.518546	0.0134105	
1.49263	-367.777	556.886	-23.5521	29.4412	0.196407	0.302327	0.0123669	
1.49762	-367.937	557.064	-23.2148	29.539	0.33245	0.513424	0.0132087	
1.50262	-368.011	557.121	-23.1007	29.6368	0.19852	0.305441	0.0122727	
1.50761	-367.847	556.941	-23.452	29.7346	0.327861	0.506099	0.0132737	
1.5126	-367.768	556.885	-23.5699	29.8324	0.202649	0.311735	0.0120962	
1.51759	-367.937	557.057	-23.2255	29.9302	0.322047	0.497493	0.0130069	
1.52258	-368.021	557.108	-23.1062	30.028	0.208023	0.319808	0.0123959	
1.52758	-367.851	556.933	-23.44	30.1258	0.315455	0.487169	0.0129754	
1.53257	-367.772	556.883	-23.555	30.2237	0.214495	0.330361	0.0120071	
1.53756	-367.938	557.062	-23.2135	30.3215	0.307817	0.475212	0.0128613	
1.54255	-368.012	557.112	-23.0983	30.4193	0.222024	0.342086	0.0122538	
1.54754	-367.84	556.941	-23.4479	30.5171	0.299269	0.462181	0.0127681	
1.55254	-367.761	556.889	-23.5668	30.6149	0.229931	0.354577	0.011831	
1.55753	-367.941	557.045	-23.2197	30.7127	0.290156	0.447823	0.0123918	
1.56252	-368.022	557.092	-23.0908	30.8105	0.238277	0.367636	0.0123029	
1.56751	-367.838	556.931	-23.437	30.9083	0.280119	0.432522	0.0122456	
1.57251	-367.755	556.883	-23.569	31.0061	0.246626	0.38092	0.0120805	
1.5775	-367.937	557.055	-23.2169	31.104	0.269988	0.416339	0.0122533	
1.58249	-368.016	557.113	-23.0864	31.2018	0.254962	0.39365	0.0121899	
1.58748	-367.83	556.946	-23.4388	31.2996	0.258889	0.399783	0.0119696	
1.59247	-367.745	556.88	-23.5712	31.3974	0.263054	0.405875	0.0120595	
1.59747	-367.929	557.042	-23.222	31.4952	0.247915	0.382841	0.0118945	
1.60246	-368.018	557.103	-23.0819	31.593	0.270447	0.417286	0.0121858	
1.60745	-367.841	556.936	-23.4317	31.6908	0.236657	0.365705	0.0118684	
1.61244	-367.758	556.884	-23.5669	31.7886	0.27751	0.427789	0.0121579	
1.61743	-367.937	557.055	-23.2134	31.8864	0.226225	0.348951	0.0118374	
1.62243	-368.018	557.108	-23.0768	31.9843	0.283216	0.437227	0.012113	
1.62742	-367.834	556.939	-23.4305	32.0821	0.215458	0.33245	0.0114112	
1.63241	-367.748	556.884	-23.5802	32.1799	0.288776	0.445149	0.0121742	
1.6374	-367.944	557.05	-23.2359	32.2777	0.205852	0.317339	0.0114433	
1.64239	-368.035	557.108	-23.0923	32.3755	0.292685	0.45194	0.0121099	
1.64739	-367.838	556.94	-23.4392	32.4733	0.19693	0.303356	0.0112229	
1.65238	-367.749	556.882	-23.5724	32.5711	0.296098	0.456945	0.0120089	
1.65737	-367.938	557.051	-23.2117	32.6689	0.18889	0.291137	0.0111792	
1.66236	-368.026	557.111	-23.075	32.7667	0.298156	0.460702	0.0118602	
1.66735	-367.833	556.939	-23.4376	32.8646	0.182862	0.28124	0.0109655	
1.67235	-367.742	556.871	-23.5873	32.9624	0.299365	0.462551	0.0120245	
1.67734	-367.941	557.04	-23.2286	33.0602	0.177919	0.273604	0.0109806	
1.68233	-368.038	557.105	-23.0757	33.158	0.299435	0.462897	0.0118574	
1.68732	-367.836	556.936	-23.441	33.2558	0.175021	0.268888	0.0110354	
1.69232	-367.738	556.875	-23.5901	33.3536	0.298548	0.461686	0.0118867	
1.69731	-367.942	557.05	-23.2242	33.4514	0.173769	0.266797	0.0109736	
1.7023	-368.037	557.115	-23.0731	33.5492	0.296704	0.45861	0.011747	
1.70729	-367.833	556.946	-23.4353	33.647	0.174282	0.267937	0.0109615	
1.71228	-367.737	556.881	-23.5905	33.7449	0.293686	0.454007	0.0117348	
1.71728	-367.938	557.043	-23.2274	33.8427	0.176543	0.271625	0.010736	
1.72227	-368.039	557.106	-23.0614	33.9405	0.289919	0.447672	0.0116532	
1.72726	-367.832	556.945	-23.4241	34.0383	0.180228	0.277603	0.0108707	
1.73225	-367.734	556.872	-23.5917	34.1361	0.285187	0.440319	0.0114899	
1.73724	-367.943	557.037	-23.2192	34.2339	0.185386	0.28574	0.0106061	
1.74224	-368.037	557.119	-23.0596	34.3317	0.279121	0.431402	0.0116031	
1.74723	-367.833	556.95	-23.4326	34.4295	0.191514	0.29521	0.0106565	
1.75222	-367.733	556.871	-23.5942	34.5273	0.272534	0.420797	0.0113064	
1.75721	-367.945	557.033	-23.2283	34.6252	0.198611	0.306005	0.0108766	
1.7622	-368.048	557.104	-23.0585	34.723	0.265175	0.409108	0.0112096	
1.7672	-367.833	556.941	-23.4269	34.8208	0.205852	0.317506	0.010923	
1.77219	-367.735	556.87	-23.5958	34.9186	0.257142	0.396594	0.0109294	
1.77718	-367.941	557.047	-23.2238	35.0164	0.213614	0.329522	0.0109825	
1.78217	-368.037	557.122	-23.0569	35.1142	0.248208	0.383179	0.010956	
1.78716	-367.831	556.94	-23.4287	35.212	0.221259	0.341391	0.0107254	
1.79216	-367.731	556.858	-23.5992	35.3098	0.239099	0.36898	0.0108726	
1.79715	-367.943	557.023	-23.2253	35.4076	0.228832	0.353133	0.0108112	
1.80214	-368.046	557.105	-23.0529	35.5055	0.22952	0.354351	0.0107856	
1.80713	-367.829	556.94	-23.4246	35.6033	0.236044	0.364273	0.0108988	
1.81212	-367.727	556.859	-23.6005	35.7011	0.220018	0.339442	0.0106548	
1.81712	-367.943	557.036	-23.2279	35.7989	0.242729	0.374797	0.0109409	
1.82211	-368.038	557.12	-23.0508	35.8967	0.210382	0.324397	0.0105901	
1.8271	-367.82	556.944	-23.4264	35.9945	0.248904	0.384256	0.0108233	
1.83209	-367.731	556.862	-23.6033	36.0923	0.200922	0.309561	0.0103134	
1.83709	-367.956	557.032	-23.2277	36.1901	0.254337	0.392816	0.0108724	
1.84208	-368.052	557.111	-23.0488	36.2879	0.191815	0.295354	0.0103002	
1.84707	-367.83	556.941	-23.4258	36.3858	0.258969	0.400114	0.01071	
1.85206	-367.729	556.866	-23.6053	36.4836	0.183175	0.282021	0.0101614	
1.85705	-367.945	557.045	-23.2295	36.5814	0.262959	0.406269	0.0109285	
1.86205	-368.035	557.123	-23.049	36.6792	0.175494	0.27031	0.0099955	
1.86704	-367.816	556.943	-23.4285	36.777	0.265887	0.410621	0.0107661	
1.87203	-367.729	556.858	-23.6116	36.8748	0.168734	0.259856	0.0101429	
1.87702	-367.959	557.031	-23.2319	36.9726	0.268099	0.413989	0.0104905	
1.88201	-368.054	557.119	-23.0492	37.0704	0.163341	0.25135	0.00994751	
1.88701	-367.821	556.947	-23.4287	37.1683	0.269065	0.415922	0.010801	
1.892	-367.723	556.855	-23.615	37.2661	0.159418	0.245121	0.00989679	
1.89699	-367.953	557.041	-23.2351	37.3639	0.269379	0.416249	0.0107247	
1.90198	-368.051	557.134	-23.0455	37.4617	0.15715	0.241503	0.0098753	
1.90697	-367.821	556.95	-23.4247	37.5595	0.268512	0.414996	0.0106568	
1.91197	-367.729	556.856	-23.6165	37.6573	0.156363	0.24041	0.00980734	
1.91696	-367.961	557.025	-23.2412	37.7551	0.266959	0.412402	0.0107683	
1.92195	-368.054	557.111	-23.0457	37.8529	0.157095	0.241935	0.00977472	
1.92694	-367.818	556.939	-23.4189	37.9507	0.264341	0.408317	0.0105659	
1.93193	-367.714	556.857	-23.6072	38.0486	0.159782	0.245532	0.00977762	
1.93693	-367.953	557.042	-23.2266	38.1464	0.260644	0.402838	0.0105918	
1.94192	-368.053	557.13	-23.0428	38.2442	0.163458	0.251536	0.00983087	
1.94691	-367.814	556.947	-23.4288	38.342	0.256391	0.395948	0.0102461	
1.9519	-367.719	556.851	-23.6201	38.4398	0.168365	0.259186	0.00972137	
1.9569	-367.961	557.024	-23.2382	38.5376	0.251079	0.387914	0.0103569	
1.96189	-368.059	557.121	-23.046	38.6354	0.174284	0.268206	0.00977471	
1.96688	-367.816	556.942	-23.4265	38.7332	0.245118	0.378712	0.0101528	
1.97187	-367.717	556.846	-23.6097	38.831	0.18066	0.278394	0.00976096	
1.97686	-367.958	557.033	-23.2233	38.9289	0.238404	0.368283	0.0101651	
1.98186	-368.059	557.129	-23.0372	39.0267	0.187549	0.289148	0.00976635	
1.98685	-367.814	556.945	-23.4213	39.1245	0.231201	0.356979	0.00998881	
1.99184	-367.713	556.84	-23.6166	39.2223	0.194555	0.300125	0.00976687	
1.99683	-367.962	557.017	-23.2443	39.3201	0.223489	0.344926	0.0100618	
2.00182	-368.057	557.113	-23.0523	39.4179	0.201734	0.311123	0.00979001	
2.00682	-367.814	556.933	-23.4235	39.5157	0.215216	0.33226	0.00970169	
2.01181	-367.72	556.847	-23.6113	39.6135	0.208586	0.321964	0.00986756	
2.0168	-367.956	557.034	-23.2336	39.7113	0.206683	0.319101	0.00986582	
2.02179	-368.046	557.128	-23.0446	39.8092	0.215224	0.332131	0.00977225	
2.02678	-367.804	556.942	-23.4236	39.907	0.198166	0.305653	0.00958113	
2.03178	-367.717	556.841	-23.619	40.0048	0.221345	0.341704	0.00995742	
2.03677	-367.963	557.016	-23.2405	40.1026	0.189481	0.292376	0.00945327	
2.04176	-368.052	557.123	-23.0458	40.2004	0.226989	0.35033	0.00994655	
2.04675	-367.803	556.948	-23.4166	40.2982	0.180964	0.27918	0.00950352	
2.05174	-367.711	556.846	-23.6061	40.396	0.232035	0.35823	0.00989581	
2.05674	-367.961	557.027	-23.2408	40.4938	0.172928	0.266466	0.00939535	
2.06173	-368.046	557.128	-23.045	40.5916	0.23631	0.36483	0.00995423	
2.06672	-367.799	556.943	-23.421	40.6895	0.165426	0.254715	0.00927903	
2.07171	-367.719	556.837	-23.6239	40.7873	0.239815	0.370461	0.00986084	
2.07671	-367.971	557.022	-23.2465	40.8851	0.158695	0.244193	0.00932164	
2.0817	-368.066	557.118	-23.0416	40.9829	0.242498	0.374779	0.009882	
2.08669	-367.81	556.938	-23.4123	41.0807	0.152768	0.235153	0.00902181	
2.09168	-367.711	556.845	-23.6123	41.1785	0.244513	0.377569	0.00985098	
2.09667	-367.962	557.029	-23.2508	41.2763	0.148126	0.228074	0.00901668	
2.10167	-368.053	557.132	-23.0603	41.3741	0.245466	0.379332	0.00991326	
2.10666	-367.806	556.947	-23.4199	41.4719	0.145001	0.222808	0.00906033	
2.11165	-367.724	556.838	-23.6153	41.5698	0.24577	0.379594	0.00980909	
2.11664	-367.981	557.011	-23.2451	41.6676	0.142949	0.219988	0.00906094	
2.12163	-368.062	557.125	-23.0474	41.7654	0.24502	0.378577	0.00979166	
2.12663	-367.796	556.949	-23.4168	41.8632	0.142866	0.219506	0.00889459	
2.13162	-367.705	556.84	-23.6085	41.961	0.243379	0.376111	0.0096567	
2.13661	-367.964	557.028	-23.2486	42.0588	0.143889	0.221422	0.00905324	
2.1416	-368.053	557.134	-23.0562	42.1566	0.241105	0.372491	0.00963861	
2.14659	-367.796	556.944	-23.4221	42.2544	0.146569	0.22533	0.00895561	
2.15159	-367.712	556.835	-23.6193	42.3522	0.237837	0.367443	0.00949698	
2.15658	-367.981	557.018	-23.2523	42.4501	0.150239	0.231146	0.00899179	
2.16157	-368.068	557.128	-23.0496	42.5479	0.233737	0.361199	0.00948645	
2.16656	-367.8	556.949	-23.3997	42.6457	0.155095	0.238461	0.0088554	
2.17155	-367.712	556.838	-23.5998	42.7435	0.228869	0.353765	0.0094628	
2.17655	-367.973	557.026	-23.2484	42.8413	0.160445	0.247318	0.00911341	
2.18154	-368.057	557.141	-23.0518	42.9391	0.223605	0.3452	0.00933077	
2.18653	-367.799	556.949	-23.411	43.0369	0.166586	0.256707	0.00888128	
2.19152	-367.722	556.829	-23.5974	43.1347	0.217495	0.335898	0.00939891	
2.19652	-367.976	557.009	-23.225	43.2325	0.17302	0.266744	0.00909002	
2.20151	-368.057	557.127	-23.0213	43.3304	0.210909	0.325571	0.0090952	
2.2065	-367.798	556.945	-23.3746	43.4282	0.179727	0.276931	0.00899125	
2.21149	-367.715	556.825	-23.5747	43.526	0.203637	0.314681	0.00913057	
2.21648	-367.977	557.013	-23.2299	43.6238	0.186377	0.287096	0.0090608	
2.22148	-368.052	557.136	-23.0393	43.7216	0.196237	0.303055	0.0089411	
2.22647	-367.789	556.951	-23.397	43.8194	0.19269	0.297263	0.00908293	
2.23146	-367.715	556.832	-23.609	43.9172	0.188648	0.291075	0.00899919	
2.23645	-367.983	557.018	-23.2712	44.015	0.198809	0.306622	0.0090568	
2.24144	-368.056	557.138	-23.0665	44.1128	0.180777	0.278845	0.00874701	
2.24644	-367.789	556.956	-23.4023	44.2107	0.204459	0.315523	0.00925698	
2.25143	-367.713	556.838	-23.6032	44.3085	0.172875	0.266668	0.0086886	
2.25642	-367.973	557.017	-23.2598	44.4063	0.209681	0.323539	0.00911333	
2.26141	-368.051	557.144	-23.0656	44.5041	0.165202	0.254795	0.00865237	
2.2664	-367.797	556.963	-23.4108	44.6019	0.214282	0.330769	0.00924614	
2.2714	-367.722	556.826	-23.612	44.6997	0.157876	0.243479	0.00855498	
2.27639	-367.979	557.005	-23.2665	44.7975	0.218302	0.336923	0.00920723	
2.28138	-368.051	557.129	-23.0646	44.8953	0.151183	0.232803	0.00847569	
2.28637	-367.788	556.953	-23.4069	44.9931	0.221566	0.341936	0.00923385	
2.29136	-367.711	556.837	-23.6002	45.091	0.145178	0.223443	0.00840404	
2.29636	-367.975	557.02	-23.2645	45.1888	0.224037	0.345896	0.00908819	
2.30135	-368.055	557.149	-23.0728	45.2866	0.140074	0.215436	0.00836299	
2.30634	-367.799	556.961	-23.4179	45.3844	0.22585	0.348614	0.00925769	
2.31133	-367.723	556.824	-23.6124	45.4822	0.13611	0.209321	0.00834809	
2.31633	-367.976	557.01	-23.2675	45.58	0.226871	0.350003	0.00918598	
2.32132	-368.05	557.149	-23.0643	45.6778	0.133247	0.205139	0.00834755	
2.32631	-367.795	556.969	-23.3933	45.7756	0.226964	0.350321	0.0091474	
2.3313	-367.721	556.839	-23.5973	45.8734	0.132115	0.202827	0.00828923	
2.33629	-367.978	557.019	-23.2768	45.9713	0.22621	0.349362	0.00908735	
2.34129	-368.054	557.155	-23.0768	46.0691	0.132042	0.202901	0.00832364	
2.34628	-367.792	556.975	-23.4077	46.1669	0.224795	0.346982	0.00902098	
2.35127	-367.721	556.831	-23.6058	46.2647	0.133287	0.205076	0.00835767	
2.35626	-367.987	557.003	-23.2704	46.3625	0.222548	0.343498	0.00912776	
2.36125	-368.047	557.137	-23.0761	46.4603	0.136137	0.209348	0.00825714	
2.36625	-367.787	556.964	-23.3999	46.5581	0.219521	0.338959	0.00919637	
2.37124	-367.723	556.838	-23.5919	46.6559	0.139815	0.214991	0.0083461	
2.37623	-367.977	557.026	-23.269	46.7537	0.215771	0.333123	0.00883462	
2.38122	-368.048	557.159	-23.0681	46.8516	0.144538	0.222113	0.00846635	
2.38621	-367.797	556.969	-23.396	46.9494	0.211417	0.326253	0.00881353	
2.39121	-367.728	556.825	-23.608	47.0472	0.149625	0.230388	0.00852298	
2.3962	-367.984	557.007	-23.2854	47.145	0.206361	0.318413	0.0086765	
2.40119	-368.051	557.147	-23.0751	47.2428	0.155656	0.239461	0.00852252	
2.40618	-367.781	556.968	-23.384	47.3406	0.200709	0.309721	0.00874567	
2.41117	-367.71	556.831	-23.5877	47.4384	0.161878	0.248924	0.00860693	
2.41617	-367.969	557.016	-23.2868	47.5362	0.19463	0.300134	0.00854319	
2.42116	-368.033	557.158	-23.0883	47.634	0.168019	0.258558	0.00875738	
2.42615	-367.783	556.978	-23.3917	47.7319	0.188027	0.289995	0.00850367	
2.43114	-367.723	556.832	-23.5949	47.8297	0.174283	0.268324	0.00886413	
2.43613	-367.98	557.003	-23.2908	47.9275	0.181172	0.279194	0.00839174	
2.44113	-368.039	557.15	-23.0792	48.0253	0.180215	0.277672	0.00898901	
2.44612	-367.779	556.979	-23.3773	48.1231	0.173971	0.268199	0.00836362	
2.45111	-367.713	556.841	-23.588	48.2209	0.186117	0.2864	0.00905857	
2.4561	-367.97	557.025	-23.2888	48.3187	0.166822	0.257007	0.00833683	
2.4611	-368.036	557.162	-23.0785	48.4165	0.191493	0.294873	0.00930969	
2.46609	-367.787	556.976	-23.3768	48.5143	0.159511	0.24572	0.00829798	
2.47108	-367.718	556.836	-23.5806	48.6122	0.196421	0.302281	0.0095487	
2.47607	-367.963	557.009	-23.2753	48.71	0.15256	0.234976	0.00826539	
2.48106	-368.029	557.146	-23.0701	48.8078	0.200898	0.309106	0.00978773	
2.48606	-367.773	556.976	-23.3679	48.9056	0.145912	0.224582	0.00866326	
2.49105	-367.71	556.837	-23.5776	49.0034	0.204764	0.314753	0.0104625	
2.49604	-367.958	557.017	-23.2946	49.1012	0.139962	0.214786	0.00913269	
2.50103	-368.013	557.163	-23.0933	49.199	0.208453	0.319743	0.0107836	
2.50602	-367.766	556.983	-23.3859	49.2968	0.134575	0.206676	0.00815446	
2.51102	-367.708	556.84	-23.6023	49.3946	0.210377	0.323396	0.011969	
2.51601	-367.956	557.016	-23.3173	49.4925	0.128752	0.199175	0.0143753	
2.521	-368.016	557.161	-23.0996	49.5903	0.215149	0.325429	0.0188019	
2.52599	-367.754	556.992	-23.381	49.6881	0.128016	0.194567	0.0196624	
2.53098	-367.689	556.857	-23.5942	49.7859	0.215745	0.327737	0.0300321	
2.53598	-367.936	557.035	-23.3196	49.8837	0.120486	0.186442	0.0565709	
2.54097	-367.988	557.182	-23.11	49.9815	0.245397	0.359989	0.130458	
2.54596	-367.747	557.005	-23.3865	50.0793	0.119253	0.18591	0.0823376	
2.55095	-367.688	556.851	-23.5967	50.1771	0.215692	0.320554	0.0506023	
2.55594	-367.928	557.029	-23.3245	50.2749	0.122335	0.189085	0.0317212	
2.56094	-367.983	557.183	-23.1129	50.3728	0.205549	0.324838	0.00934364	
2.56593	-367.728	557.018	-23.3839	50.4706	0.124814	0.192543	0.0185377	
2.57092	-367.649	556.877	-23.6025	50.5684	0.204521	0.318658	0.0221922	
2.57591	-367.876	557.05	-23.3416	50.6662	0.126229	0.195829	0.0177412	
2.58091	-367.935	557.198	-23.1311	50.764	0.201762	0.315149	0.010902	
2.5859	-367.692	557.025	-23.3928	50.8618	0.129345	0.201206	0.0107132	
2.59089	-367.617	556.872	-23.6106	50.9596	0.198753	0.310152	0.00979892	
2.59588	-367.851	557.045	-23.3494	51.0574	0.134807	0.208377	0.00856865	
2.60087	-367.912	557.194	-23.137	51.1552	0.195802	0.303487	0.00923308	
2.60587	-367.663	557.025	-23.3957	51.2531	0.139481	0.215974	0.00849758	
2.61086	-367.589	556.886	-23.6049	51.3509	0.190972	0.296228	0.00814931	
2.61585	-367.823	557.057	-23.3602	51.4487	0.14501	0.224815	0.00841969	
2.62084	-367.881	557.198	-23.1555	51.5465	0.18622	0.288136	0.00802719	
2.62583	-367.63	557.03	-23.4103	51.6443	0.151013	0.23379	0.00808526	
2.63083	-367.553	556.877	-23.621	51.7421	0.180395	0.279314	0.00822808	
2.63582	-367.78	557.037	-23.3608	51.8399	0.15688	0.242888	0.00794427	
2.64081	-367.825	557.194	-23.137	51.9377	0.174486	0.269814	0.00828198	
2.6458	-367.577	557.032	-23.3739	52.0356	0.162704	0.25197	0.00811455	
2.65079	-367.518	556.879	-23.575	52.1334	0.167934	0.259886	0.0082025	
2.65579	-367.733	557.041	-23.3084	52.2312	0.168377	0.260779	0.00792628	
2.66078	-367.77	557.181	-23.0765	52.329	0.161511	0.249609	0.00811893	
2.66577	-367.543	557.001	-23.3096	52.4268	0.1738	0.26907	0.0078369	
2.67076	-367.492	556.83	-23.5186	52.5246	0.154865	0.239212	0.00797094	
2.67575	-367.724	556.978	-23.2574	52.6224	0.178796	0.276875	0.00780396	
2.68075	-367.794	557.116	-23.0065	52.7202	0.148355	0.228996	0.00787853	
2.68574	-367.582	556.924	-23.2227	52.818	0.183376	0.283858	0.00783376	
2.69073	-367.527	556.755	-23.4332	52.9159	0.141831	0.219022	0.00788739	
2.69572	-367.764	556.907	-23.1865	53.0137	0.187335	0.290087	0.00770701	
2.70072	-367.849	557.03	-22.9354	53.1115	0.135746	0.209387	0.00780081	
2.70571	-367.65	556.832	-23.1368	53.2093	0.190786	0.295425	0.00779686	
2.7107	-367.613	556.648	-23.3483	53.3071	0.130042	0.200661	0.00771337	
2.71569	-367.849	556.789	-23.1005	53.4049	0.193691	0.299846	0.00782191	
2.72068	-367.932	556.923	-22.8685	53.5027	0.125213	0.193006	0.00760117	
2.72568	-367.776	556.705	-23.1238	53.6005	0.195788	0.303136	0.00789398	
2.73067	-367.783	556.49	-23.3851	53.6983	0.121207	0.186688	0.0075981	
2.73566	-368.024	556.623	-23.183	53.7962	0.197301	0.305437	0.00779377	
2.74065	-368.093	556.745	-22.9384	53.894	0.118133	0.181876	0.00752018	
2.74564	-367.883	556.546	-23.1273	53.9918	0.198056	0.306656	0.00780341	
2.75064	-367.821	556.355	-23.3441	54.0896	0.116243	0.178802	0.00753343	
2.75563	-368.021	556.485	-23.1221	54.1874	0.198222	0.306751	0.00782412	
2.76062	-368.082	556.596	-22.8687	54.2852	0.11549	0.177764	0.00742476	
2.76561	-367.899	556.373	-23.0452	54.383	0.197573	0.305708	0.00785647	
2.7706	-367.832	556.182	-23.2392	54.4808	0.115969	0.178448	0.00739212	
2.7756	-367.956	556.351	-22.9841	54.5786	0.196265	0.303639	0.00768358	
2.78059	-367.911	556.516	-22.6976	54.6765	0.117581	0.181012	0.00731825	
2.78558	-367.641	556.342	-22.8398	54.7743	0.194282	0.300513	0.00773325	
2.79057	-367.54	556.153	-23.0208	54.8721	0.12019	0.185283	0.00733624	
2.79556	-367.719	556.271	-22.7771	54.9699	0.19158	0.296342	0.00773947	
2.80056	-367.768	556.393	-22.4924	55.0677	0.123841	0.190995	0.00734921	
2.80555	-367.53	556.205	-22.6387	55.1655	0.188238	0.291179	0.00766497	
2.81054	-367.404	556.029	-22.8267	55.2633	0.128274	0.197702	0.00731823	
2.81553	-367.547	556.157	-22.5679	55.3611	0.184381	0.285154	0.00758429	
2.82053	-367.564	556.272	-22.2926	55.4589	0.1331	0.205383	0.00729844	
2.82552	-367.314	556.088	-22.4983	55.5568	0.179954	0.278153	0.00756014	
2.83051	-367.189	555.921	-22.7231	55.6546	0.138412	0.213602	0.00729141	
2.8355	-367.316	556.069	-22.4673	55.7524	0.174963	0.270468	0.00752231	
2.84049	-367.327	556.206	-22.1431	55.8502	0.143976	0.222215	0.0072756	
2.84549	-367.076	556.036	-22.2654	55.948	0.169573	0.262118	0.00755144	
2.85048	-366.942	555.874	-22.4654	56.0458	0.149495	0.23097	0.0072716	
2.85547	-367.08	556.012	-22.2453	56.1436	0.163859	0.253138	0.00750523	
2.86046	-367.165	556.105	-21.9599	56.2414	0.155046	0.239463	0.00731828	
2.86545	-367.02	555.869	-22.1077	56.3392	0.157811	0.2438	0.00739183	
2.87045	-366.933	555.676	-22.3256	56.4371	0.160381	0.24772	0.00736577	
2.87544	-367.07	555.828	-22.1044	56.5349	0.151681	0.234157	0.00744467	
2.88043	-367.086	555.987	-21.8214	56.6327	0.165413	0.255629	0.00738424	
2.88542	-366.874	555.821	-21.9771	56.7305	0.14546	0.224458	0.00738591	
2.89041	-366.794	555.649	-22.198	56.8283	0.170051	0.262859	0.00737449	
2.89541	-366.943	555.79	-21.9917	56.9261	0.139209	0.21482	0.00733589	
2.9004	-366.977	555.926	-21.7218	57.0239	0.174251	0.269566	0.00735959	
2.90539	-366.785	555.748	-21.871	57.1217	0.133237	0.205393	0.00711547	
2.91038	-366.69	555.582	-22.0895	57.2195	0.177989	0.275352	0.00739059	
2.91537	-366.83	555.736	-21.8791	57.3174	0.127484	0.196628	0.00719371	
2.92037	-366.89	555.881	-21.5845	57.4152	0.181233	0.28032	0.00736038	
2.92536	-366.712	555.706	-21.722	57.513	0.122389	0.188484	0.00703573	
2.93035	-366.628	555.531	-21.9539	57.6108	0.183949	0.284427	0.00743593	
2.93534	-366.784	555.656	-21.7651	57.7086	0.117931	0.181505	0.00703703	
2.94034	-366.854	555.78	-21.495	57.8064	0.185901	0.287513	0.00734186	
2.94533	-366.707	555.592	-21.6361	57.9042	0.114243	0.175861	0.00709056	
2.95032	-366.663	555.378	-21.8563	58.002	0.187215	0.289651	0.00742111	
2.95531	-366.839	555.486	-21.6647	58.0998	0.111564	0.171689	0.00691505	
2.9603	-366.898	555.615	-21.3784	58.1977	0.188054	0.290631	0.00738531	
2.9653	-366.713	555.433	-21.5165	58.2955	0.109776	0.16917	0.00703769	
2.97029	-366.628	555.246	-21.7521	58.3933	0.187924	0.29057	0.00739999	
2.97528	-366.758	555.368	-21.5549	58.4911	0.109456	0.168459	0.00700228	
2.98027	-366.788	555.493	-21.2684	58.5889	0.187316	0.289628	0.0074323	
2.98526	-366.603	555.31	-21.4061	58.6867	0.110026	0.169594	0.00698265	
2.99026	-366.51	555.122	-21.6323	58.7845	0.185938	0.287534	0.0073548	
2.99525	-366.629	555.248	-21.4351	58.8823	0.111992	0.172295	0.00693489	
3.00024	-366.639	555.388	-21.1339	58.9801	0.183995	0.284521	0.00733132	
3.00523	-366.434	555.207	-21.2471	59.078	0.114674	0.176623	0.00683647	
3.01022	-366.332	555.009	-21.4591	59.1758	0.181426	0.280451	0.00732891	
3.01522	-366.428	555.138	-21.2668	59.2736	0.118301	0.182244	0.00688489	
3.02021	-366.426	555.278	-20.9626	59.3714	0.178134	0.275551	0.00725096	
3.0252	-366.248	555.079	-21.069	59.4692	0.122502	0.188872	0.00688971	
3.03019	-366.172	554.868	-21.3001	59.567	0.174409	0.269644	0.00726714	
3.03518	-366.29	554.975	-21.1146	59.6648	0.127286	0.196345	0.006921	
3.04018	-366.329	555.091	-20.803	59.7626	0.170174	0.263114	0.00722539	
3.04517	-366.16	554.899	-20.9055	59.8604	0.132406	0.204298	0.00683867	
3.05016	-366.084	554.691	-21.1484	59.9583	0.165502	0.255714	0.00719854	
3.05515	-366.216	554.802	-20.9962	60.0561	0.137713	0.212573	0.00701915	
3.06014	-366.248	554.919	-20.728	60.1539	0.160363	0.247696	0.00711921	
3.06514	-366.082	554.715	-20.8716	60.2517	0.143043	0.220866	0.00694603	
3.07013	-365.999	554.519	-21.1364	60.3495	0.154938	0.239207	0.00708009	
3.07512	-366.115	554.638	-20.9812	60.4473	0.148277	0.229068	0.00697387	
3.08011	-366.159	554.764	-20.6932	60.5451	0.149143	0.23034	0.00702446	
3.08511	-365.999	554.584	-20.8179	60.6429	0.153388	0.236993	0.00704403	
3.0901	-365.922	554.385	-21.0742	60.7407	0.143376	0.221236	0.00698394	
3.09509	-366.051	554.491	-20.9097	60.8386	0.158204	0.244426	0.00696467	
3.10008	-366.088	554.609	-20.6169	60.9364	0.137408	0.211992	0.00692579	
3.10507	-365.919	554.428	-20.751	61.0342	0.162669	0.251322	0.00695086	
3.11007	-365.834	554.236	-21.0145	61.132	0.131568	0.202984	0.00686682	
3.11506	-365.966	554.34	-20.8527	61.2298	0.166663	0.257582	0.00702612	
3.12005	-366.008	554.467	-20.552	61.3276	0.125844	0.19412	0.00681187	
3.12504	-365.851	554.277	-20.6733	61.4254	0.170189	0.263112	0.00704121	
3.13003	-365.806	554.06	-20.9063	61.5232	0.120655	0.185877	0.00679631	
3.13503	-365.974	554.134	-20.6945	61.621	0.173186	0.267776	0.00707081	
3.14002	-366.042	554.223	-20.3543	61.7189	0.115751	0.178468	0.0067749	
3.14501	-365.89	554.029	-20.4517	61.8167	0.175692	0.271576	0.00708645	
3.15	-365.818	553.816	-20.6924	61.9145	0.111659	0.172043	0.00667813	
3.15499	-365.931	553.914	-20.5105	62.0123	0.1775	0.274493	0.00704478	
3.15999	-365.923	554.06	-20.1758	62.1101	0.108433	0.16692	0.00667101	
3.16498	-365.7	553.916	-20.2654	62.2079	0.178733	0.276386	0.00701565	
3.16997	-365.562	553.73	-20.5331	62.3057	0.106024	0.163236	0.00662081	
3.17496	-365.649	553.82	-20.408	62.4035	0.17934	0.277251	0.00707886	
3.17995	-365.674	553.918	-20.1275	62.5013	0.104663	0.161173	0.00658604	
3.18495	-365.508	553.702	-20.2482	62.5992	0.1793	0.277228	0.00703992	
3.18994	-365.439	553.464	-20.5098	62.697	0.104505	0.160857	0.00665594	
3.19493	-365.579	553.526	-20.3245	62.7948	0.178643	0.276113	0.0070712	
3.19992	-365.672	553.592	-19.9759	62.8926	0.105394	0.16225	0.00662687	
3.20492	-365.551	553.364	-20.064	62.9904	0.177359	0.274111	0.00707248	
3.20991	-365.474	553.142	-20.3085	63.0882	0.10722	0.165296	0.00661747	
3.2149	-365.567	553.24	-20.1391	63.186	0.175351	0.271156	0.00703924	
3.21989	-365.557	553.373	-19.8441	63.2838	0.110211	0.169711	0.00657457	
3.22488	-365.36	553.209	-19.9858	63.3816	0.172818	0.267179	0.00702172	
3.22988	-365.249	553.012	-20.2759	63.4795	0.11371	0.175108	0.00653995	
3.23487	-365.345	553.105	-20.118	63.5773	0.169773	0.26241	0.00696221	
3.23986	-365.362	553.237	-19.7833	63.6751	0.117864	0.181629	0.00659392	
3.24485	-365.163	553.09	-19.8834	63.7729	0.166168	0.256774	0.00684221	
3.24984	-365.046	552.906	-20.1481	63.8707	0.122484	0.188976	0.00655765	
3.25484	-365.13	553.002	-19.9761	63.9685	0.162024	0.25036	0.00687284	
3.25983	-365.132	553.13	-19.6489	64.0663	0.127499	0.196787	0.00659305	
3.26482	-364.932	552.97	-19.7495	64.1641	0.157505	0.243303	0.00675498	
3.26981	-364.814	552.786	-20.0046	64.2619	0.132621	0.204679	0.00662516	
3.2748	-364.898	552.893	-19.8143	64.3598	0.152525	0.235691	0.0067843	
3.2798	-364.914	553.015	-19.4695	64.4576	0.137792	0.212687	0.00662677	
3.28479	-364.736	552.84	-19.5842	64.5554	0.147318	0.227522	0.00677281	
3.28978	-364.625	552.646	-19.8563	64.6532	0.142791	0.220553	0.00669479	
3.29477	-364.707	552.739	-19.6732	64.751	0.14193	0.219012	0.00662498	
3.29976	-364.717	552.848	-19.3328	64.8488	0.14764	0.228157	0.00671031	
3.30476	-364.536	552.679	-19.4415	64.9466	0.136285	0.210323	0.00673636	
3.30975	-364.422	552.488	-19.7069	65.0444	0.152253	0.235373	0.00668218	
3.31474	-364.502	552.581	-19.5352	65.1422	0.130631	0.201637	0.00658916	
3.31973	-364.513	552.71	-19.1935	65.2401	0.156475	0.241857	0.00674844	
3.32473	-364.313	552.555	-19.3008	65.3379	0.125138	0.192951	0.00648906	
3.32972	-364.178	552.358	-19.5926	65.4357	0.160357	0.247787	0.00673444	
3.33471	-364.252	552.447	-19.43	65.5335	0.119838	0.184658	0.00654154	
3.3397	-364.255	552.575	-19.0964	65.6313	0.163699	0.253042	0.00679118	
3.34469	-364.058	552.409	-19.2166	65.7291	0.114852	0.176893	0.00648303	
3.34969	-363.94	552.225	-19.4996	65.8269	0.166493	0.257475	0.00678978	
3.35468	-364.021	552.327	-19.3169	65.9247	0.11039	0.170011	0.00641404	
3.35967	-364.021	552.443	-18.9632	66.0226	0.168847	0.261033	0.00680844	
3.36466	-363.828	552.286	-19.0748	66.1204	0.106562	0.164094	0.0064283	
3.36965	-363.702	552.102	-19.359	66.2182	0.17059	0.263684	0.00678695	
3.37465	-363.776	552.193	-19.1936	66.316	0.103531	0.159495	0.00642572	
3.37964	-363.785	552.306	-18.8621	66.4138	0.171738	0.265381	0.00681768	
3.38463	-363.607	552.136	-18.9746	66.5116	0.101515	0.156185	0.0064227	
3.38962	-363.507	551.95	-19.2513	66.6094	0.172169	0.266252	0.00676879	
3.39461	-363.593	552.043	-19.0806	66.7072	0.1005	0.154534	0.00631861	
3.39961	-363.611	552.165	-18.738	66.805	0.171996	0.266103	0.00674171	
3.4046	-363.437	552.001	-18.8493	66.9029	0.100349	0.154622	0.00632747	
3.40959	-363.341	551.805	-19.1416	67.0007	0.171352	0.265007	0.00679027	
3.41458	-363.442	551.89	-18.9769	67.0985	0.101498	0.156126	0.00626483	
3.41957	-363.457	552	-18.6418	67.1963	0.170063	0.262972	0.00679437	
3.42457	-363.283	551.835	-18.7566	67.2941	0.10338	0.159249	0.00635949	
3.42956	-363.18	551.649	-19.0393	67.3919	0.168163	0.259901	0.00671873	
3.43455	-363.265	551.747	-18.8678	67.4897	0.106382	0.163743	0.00631451	
3.43954	-363.28	551.868	-18.5145	67.5875	0.16568	0.256189	0.00671458	
3.44454	-363.121	551.702	-18.6284	67.6853	0.109938	0.169424	0.00628931	
3.44953	-363.036	551.507	-18.9299	67.7832	0.162761	0.251491	0.00663207	
3.45452	-363.131	551.58	-18.7711	67.881	0.11407	0.17585	0.00628103	
3.45951	-363.161	551.685	-18.4342	67.9788	0.15913	0.245975	0.00660138	
3.4645	-362.991	551.521	-18.5591	68.0766	0.118704	0.183	0.00640291	
3.4695	-362.88	551.324	-18.8637	68.1744	0.155123	0.239803	0.00662287	
3.47449	-362.952	551.414	-18.7147	68.2722	0.123565	0.190542	0.00637885	
3.47948	-362.954	551.541	-18.3863	68.37	0.150769	0.232928	0.00657884	
3.48447	-362.772	551.386	-18.5107	68.4678	0.128481	0.198312	0.0063737	
3.48946	-362.674	551.185	-18.8127	68.5656	0.145979	0.225557	0.00650307	
3.49446	-362.769	551.254	-18.6622	68.6635	0.133486	0.206006	0.00643558	
3.49945	-362.791	551.352	-18.3303	68.7613	0.141005	0.217724	0.00639957	
3.50444	-362.65	551.16	-18.4484	68.8591	0.138327	0.213632	0.00644937	
3.50943	-362.593	550.941	-18.7183	68.9569	0.135738	0.20956	0.00645605	
3.51442	-362.694	551.007	-18.5076	69.0547	0.143051	0.220883	0.00653545	
3.51942	-362.71	551.101	-18.1263	69.1525	0.130389	0.201242	0.00640294	
3.52441	-362.549	550.924	-18.228	69.2503	0.147427	0.227798	0.00644959	
3.5294	-362.449	550.703	-18.5313	69.3481	0.125012	0.192821	0.00641401	
3.53439	-362.522	550.744	-18.3627	69.4459	0.151527	0.234091	0.00654301	
3.53938	-362.546	550.828	-18.0023	69.5438	0.119713	0.184636	0.00626039	
3.54438	-362.381	550.643	-18.1036	69.6416	0.155161	0.239765	0.00656479	
3.54937	-362.272	550.42	-18.3823	69.7394	0.114755	0.176777	0.00624756	
3.55436	-362.352	550.464	-18.1857	69.8372	0.158316	0.244733	0.00648291	
3.55935	-362.365	550.546	-17.8005	69.935	0.110005	0.169445	0.00625353	
3.56435	-362.199	550.358	-17.8914	70.0328	0.161027	0.248969	0.00659372	
3.56934	-362.106	550.126	-18.181	70.1306	0.105872	0.16293	0.00621604	
3.57433	-362.189	550.156	-18.0057	70.2284	0.163207	0.252308	0.00654016	
3.57932	-362.208	550.217	-17.6425	70.3262	0.102278	0.157464	0.00616833	
3.58431	-362.054	550.019	-17.7549	70.4241	0.164809	0.254787	0.00654555	
3.58931	-361.95	549.79	-18.0547	70.5219	0.0995502	0.153237	0.00617427	
3.5943	-362.023	549.834	-17.8947	70.6197	0.165846	0.256396	0.00651248	
3.59929	-362.041	549.927	-17.5598	70.7175	0.0977447	0.150388	0.00612038	
3.60428	-361.883	549.747	-17.6957	70.8153	0.166263	0.257088	0.00655767	
3.60927	-361.8	549.514	-18.0171	70.9131	0.0968462	0.149109	0.00608727	
3.61427	-361.912	549.545	-17.8698	71.0109	0.166143	0.256842	0.00652834	
3.61926	-361.944	549.631	-17.5325	71.1087	0.0970552	0.149364	0.0061306	
3.62425	-361.782	549.472	-17.6601	71.2065	0.165377	0.255724	0.00656195	
3.62924	-361.697	549.27	-17.9755	71.3044	0.0982759	0.151264	0.00607292	
3.63423	-361.803	549.32	-17.82	71.4022	0.164061	0.253668	0.0065989	
3.63923	-361.84	549.427	-17.4808	71.5	0.100383	0.154505	0.00610031	
3.64422	-361.684	549.274	-17.6102	71.5978	0.162168	0.250717	0.00657048	
3.64921	-361.594	549.063	-17.9231	71.6956	0.103325	0.159164	0.00606074	
3.6542	-361.689	549.106	-17.7713	71.7934	0.159702	0.246882	0.00645514	
3.65919	-361.725	549.196	-17.4411	71.8912	0.106955	0.164685	0.00611909	
3.66419	-361.583	549.036	-17.5827	71.989	0.156788	0.242353	0.00644912	
3.66918	-361.495	548.816	-17.9002	72.0868	0.111059	0.171112	0.00612859	
3.67417	-361.577	548.848	-17.7399	72.1847	0.153342	0.236917	0.00643759	
3.67916	-361.602	548.939	-17.3867	72.2825	0.115601	0.178193	0.00615096	
3.68415	-361.454	548.771	-17.4808	72.3803	0.149449	0.230902	0.00639086	
3.68915	-361.406	548.518	-17.7823	72.4781	0.120282	0.185608	0.00610414	
3.69414	-361.521	548.52	-17.6075	72.5759	0.145183	0.224222	0.00628613	
3.69913	-361.558	548.592	-17.2447	72.6737	0.125171	0.193108	0.00617006	
3.70412	-361.434	548.409	-17.367	72.7715	0.140534	0.217051	0.00626617	
3.70912	-361.344	548.175	-17.6474	72.8693	0.129965	0.200693	0.00620713	
3.71411	-361.412	548.198	-17.4507	72.9671	0.135636	0.209505	0.00631454	
3.7191	-361.379	548.299	-17.0582	73.065	0.134737	0.208032	0.00621308	
3.72409	-361.164	548.136	-17.1434	73.1628	0.130562	0.201609	0.00617093	
3.72908	-361.049	547.876	-17.4352	73.2606	0.13929	0.21507	0.00625049	
3.73408	-361.13	547.851	-17.2785	73.3584	0.125411	0.193541	0.00618754	
3.73907	-361.133	547.9	-16.9516	73.4562	0.14355	0.221693	0.00629818	
3.74406	-360.956	547.722	-17.0881	73.554	0.120136	0.185491	0.00613684	
3.74905	-360.853	547.466	-17.3887	73.6518	0.147546	0.227775	0.00631683	
3.75404	-360.931	547.443	-17.2009	73.7496	0.115267	0.177637	0.0060851	
3.75904	-360.952	547.501	-16.8279	73.8474	0.150918	0.233273	0.0063304	
3.76403	-360.809	547.306	-16.9235	73.9453	0.110349	0.170134	0.00607211	
3.76902	-360.75	547.021	-17.192	74.0431	0.154109	0.237957	0.00627473	
3.77401	-360.855	546.993	-16.9962	74.1409	0.105897	0.1632	0.00602429	
3.779	-360.872	547.063	-16.6268	74.2387	0.156582	0.242011	0.00636386	
3.784	-360.704	546.899	-16.7364	74.3365	0.10202	0.157028	0.00594617	
3.78899	-360.58	546.667	-17.0334	74.4343	0.158654	0.245193	0.00632578	
3.79398	-360.613	546.696	-16.8646	74.5321	0.0986962	0.152034	0.00599409	
3.79897	-360.581	546.807	-16.5254	74.6299	0.160096	0.247507	0.00634749	
3.80396	-360.379	546.662	-16.6511	74.7277	0.0962428	0.148188	0.00592125	
3.80896	-360.252	546.434	-16.9457	74.8256	0.161092	0.248985	0.00641317	
3.81395	-360.304	546.437	-16.7609	74.9234	0.0946854	0.145676	0.00593335	
3.81894	-360.295	546.52	-16.3995	75.0212	0.16139	0.249553	0.00638445	
3.82393	-360.109	546.37	-16.5148	75.119	0.0940592	0.144669	0.00586617	
3.82893	-359.979	546.134	-16.802	75.2168	0.161172	0.249245	0.00640231	
3.83392	-360.018	546.145	-16.6016	75.3146	0.0944507	0.145282	0.00593752	
3.83891	-359.997	546.242	-16.22	75.4124	0.160441	0.248057	0.0063455	
3.8439	-359.804	546.09	-16.3199	75.5102	0.0957611	0.147318	0.00588612	
3.84889	-359.667	545.847	-16.6018	75.608	0.159144	0.245971	0.00634807	
3.85389	-359.708	545.835	-16.4106	75.7059	0.0979376	0.15082	0.00599783	
3.85888	-359.699	545.9	-16.0387	75.8037	0.157217	0.243049	0.00630981	
3.86387	-359.52	545.736	-16.1454	75.9015	0.100933	0.155472	0.00595845	
3.86886	-359.396	545.491	-16.4355	75.9993	0.154789	0.239305	0.00625083	
3.87385	-359.449	545.492	-16.251	76.0971	0.104559	0.161119	0.00595774	
3.87885	-359.443	545.563	-15.8904	76.1949	0.151899	0.23467	0.00626327	
3.88384	-359.27	545.389	-16.0113	76.2927	0.108648	0.167517	0.00597061	
3.88883	-359.187	545.131	-16.3188	76.3905	0.148488	0.229457	0.00627099	
3.89382	-359.287	545.102	-16.1537	76.4883	0.113117	0.174453	0.00600594	
3.89881	-359.312	545.175	-15.7996	76.5862	0.144686	0.223524	0.00618301	
3.90381	-359.15	545.041	-15.9241	76.684	0.117776	0.181729	0.00600246	
3.9088	-359.04	544.82	-16.2329	76.7818	0.140458	0.217021	0.00616633	
3.91379	-359.103	544.836	-16.0708	76.8796	0.122549	0.189149	0.00601953	
3.91878	-359.102	544.958	-15.7289	76.9774	0.135969	0.209998	0.00614932	
3.92377	-358.915	544.856	-15.8523	77.0752	0.127268	0.196495	0.00607138	
3.92877	-358.77	544.663	-16.16	77.173	0.131189	0.202612	0.0061042	
3.93376	-358.781	544.69	-16.0039	77.2708	0.131887	0.203647	0.00609689	
3.93875	-358.731	544.806	-15.6611	77.3686	0.126238	0.194935	0.00602412	
3.94374	-358.519	544.695	-15.7687	77.4665	0.136319	0.210526	0.00609158	
3.94874	-358.372	544.474	-16.0555	77.5643	0.12129	0.187148	0.0060196	
3.95373	-358.426	544.448	-15.8751	77.6621	0.140415	0.216934	0.00611199	
3.95872	-358.448	544.516	-15.5112	77.7599	0.116294	0.17937	0.00598633	
3.96371	-358.306	544.357	-15.6224	77.8577	0.144213	0.222825	0.00611372	
3.9687	-358.225	544.098	-15.9244	77.9555	0.111399	0.171757	0.00592703	
3.9737	-358.31	544.073	-15.7672	78.0533	0.147581	0.228088	0.00615365	
3.97869	-358.333	544.161	-15.4247	78.1511	0.106759	0.164597	0.00589548	
3.98368	-358.186	544.047	-15.5449	78.2489	0.150525	0.232623	0.00618763	
3.98867	-358.085	543.838	-15.8505	78.3468	0.102527	0.157961	0.00587416	
3.99366	-358.146	543.845	-15.6915	78.4446	0.152989	0.23644	0.00616707	
3.99866	-358.169	543.963	-15.3549	78.5424	0.0988483	0.152243	0.0058452	
4.00365	-358.01	543.865	-15.4797	78.6402	0.15492	0.239467	0.00623489	
4.00864	-357.894	543.652	-15.7874	78.738	0.0958093	0.147449	0.00582101	
4.01363	-357.952	543.656	-15.6415	78.8358	0.156339	0.241671	0.0062002	
4.01862	-357.932	543.77	-15.3081	78.9336	0.0935166	0.143952	0.00581499	
4.02362	-357.724	543.675	-15.4183	79.0314	0.157216	0.243019	0.00617468	
4.02861	-357.578	543.461	-15.6995	79.1292	0.0922115	0.141824	0.00581948	
4.0336	-357.604	543.438	-15.5363	79.2271	0.157498	0.243467	0.00621718	
4.03859	-357.575	543.524	-15.1917	79.3249	0.0917813	0.141135	0.00578604	
4.04358	-357.377	543.394	-15.2913	79.4227	0.157229	0.243087	0.00619348	
4.04858	-357.232	543.134	-15.5863	79.5205	0.0922796	0.142043	0.00579034	
4.05357	-357.258	543.069	-15.4354	79.6183	0.156416	0.241807	0.006174	
4.05856	-357.261	543.111	-15.0885	79.7161	0.0937908	0.144299	0.00577229	
4.06355	-357.115	542.942	-15.179	79.8139	0.155063	0.239698	0.00612625	
4.06855	-356.997	542.67	-15.4487	79.9117	0.0961021	0.147928	0.00578352	
4.07354	-357.042	542.618	-15.2755	80.0095	0.153139	0.236764	0.00617293	
4.07853	-357.053	542.671	-14.9311	80.1074	0.0991103	0.152693	0.00581183	
4.08352	-356.885	542.524	-15.0306	80.2052	0.150752	0.232998	0.00615949	
4.08851	-356.743	542.274	-15.311	80.303	0.102791	0.15839	0.00580293	
4.09351	-356.765	542.22	-15.1609	80.4008	0.147828	0.228482	0.00610998	
4.0985	-356.752	542.274	-14.8254	80.4986	0.106915	0.164793	0.00583638	
4.10349	-356.584	542.13	-14.9166	80.5964	0.144511	0.223277	0.00602448	
4.10848	-356.465	541.873	-15.1849	80.6942	0.111329	0.171649	0.0058524	
4.11347	-356.496	541.823	-15.0201	80.792	0.140738	0.21746	0.00607651	
4.11847	-356.482	541.891	-14.6746	80.8899	0.115918	0.17885	0.00587343	
4.12346	-356.33	541.753	-14.7621	80.9877	0.13659	0.21104	0.00602826	
4.12845	-356.22	541.492	-15.0458	81.0855	0.120622	0.186121	0.0058842	
4.13344	-356.255	541.418	-14.917	81.1833	0.132216	0.204153	0.00593957	
4.13843	-356.262	541.474	-14.5892	81.2811	0.125248	0.193345	0.0059196	
4.14343	-356.125	541.351	-14.661	81.3789	0.127515	0.196958	0.00592776	
4.14842	-356.003	541.098	-14.9368	81.4767	0.129762	0.200297	0.0059637	
4.15341	-356.02	541.038	-14.8032	81.5745	0.122696	0.189421	0.00591045	
4.1584	-356.02	541.112	-14.4741	81.6723	0.134038	0.207052	0.0059508	
4.16339	-355.878	540.992	-14.5652	81.7702	0.117829	0.181815	0.00590869	
4.16839	-355.768	540.741	-14.8525	81.868	0.138096	0.213303	0.00599553	
4.17338	-355.796	540.681	-14.7278	81.9658	0.112975	0.174272	0.00580754	
4.17837	-355.809	540.74	-14.3975	82.0636	0.141739	0.219	0.00602099	
4.18336	-355.687	540.602	-14.4675	82.1614	0.108277	0.166966	0.00579056	
4.18836	-355.575	540.333	-14.7489	82.2592	0.144966	0.224082	0.00602803	
4.19335	-355.598	540.248	-14.6314	82.357	0.103799	0.160022	0.00577531	
4.19834	-355.604	540.309	-14.2923	82.4548	0.147854	0.228474	0.00604773	
4.20333	-355.479	540.175	-14.3382	82.5526	0.099792	0.153722	0.00576319	
4.20832	-355.353	539.886	-14.6074	82.6505	0.150159	0.232138	0.00607821	
4.21332	-355.361	539.777	-14.5059	82.7483	0.0963129	0.148229	0.00574799	
4.21831	-355.376	539.806	-14.1664	82.8461	0.152023	0.23501	0.00607582	
4.2233	-355.25	539.659	-14.2086	82.9439	0.0934204	0.143809	0.00572641	
4.22829	-355.11	539.378	-14.4979	83.0417	0.153351	0.237096	0.00607907	
4.23328	-355.102	539.269	-14.4054	83.1395	0.091404	0.140607	0.00568417	
4.23828	-355.111	539.302	-14.0678	83.2373	0.154163	0.238313	0.00609435	
4.24327	-354.997	539.159	-14.1118	83.3351	0.090184	0.138771	0.00568177	
4.24826	-354.86	538.873	-14.4127	83.4329	0.154412	0.238694	0.00608123	
4.25325	-354.845	538.769	-14.3461	83.5308	0.0899655	0.138415	0.00565789	
4.25824	-354.853	538.806	-14.0284	83.6286	0.154102	0.238193	0.00607648	
4.26324	-354.743	538.683	-14.0759	83.7264	0.0906789	0.139522	0.00566543	
4.26823	-354.616	538.426	-14.3816	83.8242	0.153213	0.236903	0.00607257	
4.27322	-354.606	538.337	-14.3171	83.922	0.0922693	0.142056	0.00563685	
4.27821	-354.618	538.401	-13.9943	84.0198	0.151841	0.234704	0.00605093	
4.2832	-354.525	538.293	-14.0336	84.1176	0.0947261	0.145846	0.0056875	
4.2882	-354.414	538.03	-14.3344	84.2154	0.149915	0.231714	0.00604262	
4.29319	-354.412	537.938	-14.2802	84.3132	0.0978229	0.150712	0.00564744	
4.29818	-354.45	537.992	-13.9481	84.4111	0.147503	0.227982	0.00600552	
4.30317	-354.377	537.884	-13.9642	84.5089	0.101533	0.156446	0.00570237	
4.30816	-354.252	537.637	-14.2658	84.6067	0.144638	0.223473	0.00597171	
4.31316	-354.244	537.55	-14.2204	84.7045	0.105625	0.16286	0.00569225	
4.31815	-354.29	537.616	-13.889	84.8023	0.141248	0.218261	0.00597326	
4.32314	-354.227	537.516	-13.9089	84.9001	0.110054	0.169732	0.00573057	
4.32813	-354.117	537.257	-14.2209	84.9979	0.137564	0.212493	0.00594043	
4.33313	-354.105	537.169	-14.1827	85.0957	0.114608	0.176837	0.00582271	
4.33812	-354.15	537.226	-13.8436	85.1935	0.133481	0.206189	0.00590379	
4.34311	-354.088	537.119	-13.8491	85.2914	0.119254	0.184029	0.00579263	
4.3481	-353.968	536.866	-14.1531	85.3892	0.129114	0.199397	0.00586629	
4.35309	-353.947	536.764	-14.1187	85.487	0.123797	0.19113	0.00580921	
4.35809	-353.988	536.818	-13.7888	85.5848	0.124535	0.19228	0.00583558	
4.36308	-353.928	536.704	-13.789	85.6826	0.128249	0.198047	0.00585149	
4.36807	-353.786	536.421	-14.09	85.7804	0.11983	0.18494	0.00577972	
4.37306	-353.756	536.29	-14.0569	85.8782	0.132446	0.204576	0.00587741	
4.37805	-353.801	536.31	-13.7054	85.976	0.115022	0.177528	0.00574369	
4.38305	-353.737	536.173	-13.6744	86.0738	0.136367	0.210672	0.0058756	
4.38804	-353.575	535.873	-13.9626	86.1717	0.110343	0.170124	0.00571797	
4.39303	-353.496	535.725	-13.9254	86.2695	0.139931	0.216213	0.00589007	
4.39802	-353.496	535.727	-13.5584	86.3673	0.10572	0.163016	0.00569223	
4.40301	-353.378	535.55	-13.5038	86.4651	0.143127	0.221179	0.00593534	
4.40801	-353.158	535.196	-13.7674	86.5629	0.101448	0.156351	0.00568941	
4.413	-353.031	534.978	-13.7038	86.6607	0.145855	0.225416	0.00596551	
4.41799	-353.017	534.902	-13.3198	86.7585	0.0975389	0.150322	0.00565033	
4.42298	-352.915	534.671	-13.2892	86.8563	0.148109	0.228935	0.0059639	
4.42797	-352.68	534.285	-13.607	86.9541	0.0942403	0.145063	0.00563264	
4.43297	-352.541	534.057	-13.5995	87.052	0.149888	0.231716	0.00599304	
4.43796	-352.533	533.99	-13.2352	87.1498	0.0915981	0.140934	0.00561166	
4.44295	-352.433	533.783	-13.1845	87.2476	0.151151	0.23364	0.00598722	
4.44794	-352.235	533.411	-13.5056	87.3454	0.0897072	0.138066	0.00557351	
4.45294	-352.146	533.188	-13.5029	87.4432	0.151867	0.234779	0.0059741	
4.45793	-352.171	533.149	-13.1163	87.541	0.0887408	0.136511	0.0055958	
4.46292	-352.116	532.976	-13.0483	87.6388	0.152041	0.23505	0.00597574	
4.46791	-351.951	532.659	-13.3617	87.7366	0.0887024	0.136419	0.00557888	
4.4729	-351.872	532.509	-13.3582	87.8344	0.151684	0.234485	0.00598732	
4.4779	-351.905	532.542	-12.9856	87.9323	0.0895472	0.137813	0.00558474	
4.48289	-351.85	532.434	-12.9406	88.0301	0.150796	0.233084	0.00598113	
4.48788	-351.664	532.15	-13.2714	88.1279	0.0912983	0.140527	0.00558067	
4.49287	-351.557	532.015	-13.2924	88.2257	0.149347	0.23086	0.00594577	
4.49786	-351.582	532.051	-12.9305	88.3235	0.0938244	0.144449	0.00560728	
4.50286	-351.53	531.948	-12.8782	88.4213	0.147407	0.227848	0.00594159	
4.50785	-351.336	531.688	-13.2176	88.5191	0.0970205	0.14945	0.00560139	
4.51284	-351.22	531.56	-13.2481	88.6169	0.144978	0.224063	0.00591817	
4.51783	-351.247	531.602	-12.8708	88.7147	0.100784	0.155275	0.00562333	
4.52282	-351.2	531.509	-12.8015	88.8126	0.142074	0.219559	0.00590514	
4.52782	-351.01	531.22	-13.136	88.9104	0.1049	0.161733	0.00564602	
4.53281	-350.895	531.056	-13.1627	89.0082	0.138763	0.214394	0.00587233	
4.5378	-350.93	531.063	-12.7778	89.106	0.109293	0.168589	0.0056617	
4.54279	-350.873	530.927	-12.6871	89.2038	0.135051	0.208644	0.00585597	
4.54778	-350.652	530.625	-13.0139	89.3016	0.11384	0.175667	0.00569874	
4.55278	-350.503	530.454	-13.0375	89.3994	0.131017	0.202355	0.00580313	
4.55777	-350.501	530.446	-12.6403	89.4972	0.118425	0.182786	0.00573227	
4.56276	-350.419	530.284	-12.5392	89.595	0.126686	0.195643	0.0057687	
4.56775	-350.189	529.933	-12.8724	89.6929	0.122959	0.189821	0.0057557	
4.57275	-350.043	529.706	-12.9123	89.7907	0.122171	0.188608	0.00574951	
4.57774	-350.043	529.651	-12.5099	89.8885	0.127306	0.196611	0.00578147	
4.58273	-349.958	529.47	-12.4019	89.9863	0.117514	0.181394	0.00569423	
4.58772	-349.705	529.114	-12.7277	90.0841	0.131453	0.203037	0.00578074	
4.59271	-349.534	528.877	-12.7587	90.1819	0.112824	0.174074	0.00569076	
4.59771	-349.531	528.819	-12.3497	90.2797	0.135304	0.209019	0.00582806	
4.6027	-349.438	528.641	-12.2382	90.3775	0.108203	0.166861	0.0056618	
4.60769	-349.17	528.271	-12.5847	90.4753	0.138793	0.214466	0.00583776	
4.61268	-348.989	528.022	-12.6389	90.5732	0.103743	0.159933	0.00561164	
4.61767	-348.988	527.964	-12.2263	90.671	0.141874	0.219262	0.00587354	
4.62267	-348.906	527.794	-12.1049	90.7688	0.0995703	0.153448	0.0056061	
4.62766	-348.657	527.459	-12.4485	90.8666	0.144547	0.223393	0.00588719	
4.63265	-348.476	527.25	-12.5062	90.9644	0.095822	0.147625	0.00557069	
4.63764	-348.46	527.215	-12.0995	91.0622	0.146746	0.226825	0.00591944	
4.64263	-348.381	527.057	-11.9879	91.16	0.092687	0.142675	0.00555942	
4.64763	-348.123	526.716	-12.3508	91.2578	0.14845	0.229441	0.00591579	
4.65262	-347.948	526.495	-12.4223	91.3556	0.0901607	0.138812	0.00552697	
4.65761	-347.973	526.466	-12.0003	91.4535	0.149619	0.231284	0.00592366	
4.6626	-347.917	526.326	-11.8613	91.5513	0.0885043	0.136172	0.00553993	
4.66759	-347.666	526	-12.2175	91.6491	0.150281	0.232313	0.00591974	
4.67259	-347.508	525.794	-12.2794	91.7469	0.0876877	0.134923	0.00553456	
4.67758	-347.54	525.776	-11.8556	91.8447	0.150404	0.23249	0.0059382	
4.68257	-347.486	525.629	-11.7302	91.9425	0.087821	0.13511	0.00551856	
4.68756	-347.246	525.294	-12.1063	92.0403	0.149968	0.231833	0.00591627	
4.69256	-347.081	525.093	-12.1876	92.1381	0.0888431	0.136723	0.00553898	
4.69755	-347.116	525.076	-11.7591	92.2359	0.149029	0.230374	0.00590486	
4.70254	-347.075	524.936	-11.6246	92.3338	0.0907359	0.139646	0.00554448	
4.70753	-346.824	524.621	-11.998	92.4316	0.147553	0.228099	0.00589433	
4.71252	-346.658	524.424	-12.0867	92.5294	0.0933648	0.143775	0.00554194	
4.71752	-346.704	524.417	-11.6722	92.6272	0.145577	0.225026	0.0058793	
4.72251	-346.677	524.291	-11.5479	92.725	0.0966395	0.148899	0.00556026	
4.7275	-346.445	523.971	-11.9344	92.8228	0.143125	0.221193	0.00586302	
4.73249	-346.291	523.769	-12.0344	92.9206	0.100444	0.154821	0.00556583	
4.73748	-346.353	523.764	-11.6118	93.0184	0.140213	0.216664	0.00583307	
4.74248	-346.339	523.655	-11.4659	93.1162	0.104619	0.161312	0.00560998	
4.74747	-346.108	523.361	-11.8588	93.2141	0.136888	0.211495	0.00583021	
4.75246	-345.951	523.18	-11.9786	93.3119	0.109029	0.168201	0.00562123	
4.75745	-346.01	523.193	-11.5577	93.4097	0.133181	0.205736	0.00578948	
4.76244	-345.993	523.102	-11.4199	93.5075	0.113583	0.175261	0.00565958	
4.76744	-345.758	522.81	-11.8218	93.6053	0.129137	0.199477	0.00574726	
4.77243	-345.607	522.623	-11.9357	93.7031	0.118147	0.182355	0.00566419	
4.77742	-345.684	522.634	-11.5106	93.8009	0.124853	0.192803	0.00571994	
4.78241	-345.675	522.522	-11.3662	93.8987	0.122629	0.189341	0.00569958	
4.7874	-345.44	522.203	-11.7662	93.9965	0.120366	0.185823	0.00568616	
4.7924	-345.273	521.99	-11.8762	94.0944	0.126947	0.196057	0.00572841	
4.79739	-345.323	521.969	-11.4347	94.1922	0.115775	0.178653	0.00566038	
4.80238	-345.3	521.838	-11.2813	94.29	0.131036	0.202411	0.0057635	
4.80737	-345.063	521.482	-11.6832	94.3878	0.111137	0.171458	0.00562948	
4.81236	-344.898	521.218	-11.7999	94.4856	0.134821	0.208296	0.00578004	
4.81736	-344.955	521.166	-11.3505	94.5834	0.10659	0.164369	0.00560458	
4.82235	-344.929	521.009	-11.1788	94.6812	0.138259	0.213633	0.00581265	
4.82734	-344.66	520.64	-11.5737	94.779	0.10222	0.157583	0.00557831	
4.83233	-344.479	520.371	-11.6993	94.8768	0.141288	0.21835	0.00582329	
4.83733	-344.526	520.299	-11.2525	94.9747	0.0981749	0.151277	0.00555527	
4.84232	-344.497	520.117	-11.0826	95.0725	0.143887	0.222379	0.00585	
4.84731	-344.232	519.732	-11.4933	95.1703	0.0945668	0.14566	0.00552563	
4.8523	-344.041	519.463	-11.6262	95.2681	0.146006	0.225678	0.0058573	
4.85729	-344.099	519.396	-11.1667	95.3659	0.0915465	0.140938	0.0055166	
4.86229	-344.067	519.217	-10.9866	95.4637	0.147635	0.228221	0.00587619	
4.86728	-343.797	518.849	-11.3942	95.5615	0.0892235	0.137317	0.00549234	
4.87227	-343.61	518.589	-11.5254	95.6593	0.148761	0.229946	0.00588599	
4.87726	-343.672	518.523	-11.0714	95.7572	0.0877142	0.134967	0.00548909	
4.88225	-343.655	518.361	-10.898	95.855	0.149345	0.230866	0.00588704	
4.88725	-343.386	517.992	-11.3288	95.9528	0.087095	0.133986	0.00548848	
4.89224	-343.205	517.71	-11.479	96.0506	0.149409	0.23096	0.00588234	
4.89723	-343.271	517.643	-11.01	96.1484	0.0873728	0.134435	0.0054855	
4.90222	-343.253	517.486	-10.818	96.2462	0.148936	0.230223	0.00588612	
4.90721	-342.973	517.128	-11.2435	96.344	0.0885596	0.136288	0.00549133	
4.91221	-342.779	516.866	-11.3947	96.4418	0.147929	0.228672	0.00588232	
4.9172	-342.852	516.806	-10.9361	96.5396	0.0905786	0.139437	0.00549986	
4.92219	-342.837	516.647	-10.7479	96.6375	0.146414	0.226306	0.00586729	
4.92718	-342.559	516.273	-11.1776	96.7353	0.0933419	0.143758	0.0055119	
4.93217	-342.372	515.997	-11.3285	96.8331	0.144396	0.223177	0.00585049	
4.93717	-342.452	515.928	-10.8511	96.9309	0.0967236	0.149025	0.00553456	
4.94216	-342.439	515.749	-10.6411	97.0287	0.141901	0.219303	0.00583006	
4.94715	-342.156	515.355	-11.0566	97.1265	0.100592	0.155047	0.0055505	
4.95214	-341.954	515.049	-11.2006	97.2243	0.138959	0.214732	0.00580544	
4.95714	-342.015	514.947	-10.7082	97.3221	0.104815	0.161617	0.00557675	
4.96213	-341.975	514.741	-10.4922	97.4199	0.135608	0.209531	0.00577901	
4.96712	-341.672	514.305	-10.9236	97.5178	0.109264	0.168542	0.00560576	
4.97211	-341.462	513.95	-11.0789	97.6156	0.131895	0.20375	0.00574707	
4.9771	-341.5	513.799	-10.5787	97.7134	0.113809	0.175635	0.00562752	
4.9821	-341.446	513.55	-10.3553	97.8112	0.127864	0.197484	0.005722	
4.98709	-341.118	513.091	-10.7923	97.909	0.118372	0.182724	0.00565424	
4.99208	-340.887	512.725	-10.957	98.0068	0.123579	0.190824	0.00569061	
4.99707	-340.926	512.569	-10.4703	98.1046	0.122841	0.189672	0.00568652	
5.00206	-340.871	512.31	-10.264	98.2024	0.119112	0.183873	0.00566003	
5.00706	-340.559	511.841	-10.7255	98.3002	0.127131	0.196354	0.00571302	
5.01205	-340.342	511.483	-10.9273	98.3981	0.114538	0.176763	0.00563065	
5.01704	-340.397	511.346	-10.4531	98.4959	0.131183	0.202648	0.00574142	
5.02203	-340.356	511.139	-10.2427	98.5937	0.109957	0.16963	0.00560223	
5.02702	-340.036	510.726	-10.7137	98.6915	0.134928	0.208464	0.00576841	
5.03202	-339.824	510.401	-10.9164	98.7893	0.105466	0.162638	0.00557671	
5.03701	-339.897	510.307	-10.443	98.8871	0.138314	0.213727	0.00579418	
5.042	-339.88	510.125	-10.2431	98.9849	0.101181	0.155968	0.00554907	
5.04699	-339.584	509.723	-10.7216	99.0827	0.141293	0.218359	0.00581703	
5.05198	-339.391	509.405	-10.9294	99.1805	0.0972316	0.149809	0.00552788	
5.05698	-339.474	509.324	-10.446	99.2784	0.143832	0.222306	0.005835	
5.06197	-339.452	509.159	-10.2191	99.3762	0.0937451	0.144375	0.0055094	
5.06696	-339.159	508.761	-10.6871	99.474	0.1459	0.225518	0.00585142	
5.07195	-338.96	508.447	-10.884	99.5718	0.090856	0.139872	0.00549338	
5.07695	-339.039	508.342	-10.3807	99.6696	0.147471	0.227956	0.00586317	
5.08194	-339.01	508.138	-10.1536	99.7674	0.0886875	0.136489	0.00548286	
5.08693	-338.685	507.706	-10.6333	99.8652	0.148529	0.229599	0.00587108	
5.09192	-338.465	507.349	-10.8458	99.963	0.0873406	0.134388	0.00547665	
5.09691	-338.533	507.203	-10.3445	100.061	0.14906	0.230425	0.00587489	
5.10191	-338.489	506.969	-10.11	
5.1069	-338.152	506.507	-10.5826	
5.11189	-337.912	506.114	-10.7869	
5.11688	-337.959	505.938	-10.2914	
5.12187	-337.91	505.681	-10.0546	
5.12687	-337.578	505.197	-10.532	
5.13186	-337.35	504.795	-10.7447	
5.13685	-337.421	504.631	-10.2308	
5.14184	-337.386	504.388	-9.97443	
5.14683	-337.051	503.921	-10.4351	
5.15183	-336.84	503.539	-10.6444	
5.15682	-336.916	503.376	-10.1288	
5.16181	-336.86	503.124	-9.86829	
5.1668	-336.507	502.628	-10.3411	
5.17179	-336.265	502.189	-10.5504	
5.17679	-336.305	501.968	-10.0093	
5.18178	-336.199	501.665	-9.72235	
5.18677	-335.776	501.106	-10.1775	
5.19176	-335.463	500.567	-10.3844	
5.19676	-335.43	500.229	-9.85907	
5.20175	-335.286	499.805	-9.59839	
5.20674	-334.857	499.147	-10.0909	
5.21173	-334.542	498.588	-10.3311	
5.21672	-334.528	498.276	-9.81317	
5.22172	-334.393	497.903	-9.54004	
5.22671	-333.965	497.321	-10.0237	
5.2317	-333.667	496.829	-10.2511	
5.23669	-333.674	496.586	-9.72864	
5.24168	-333.592	496.289	-9.46436	
5.24668	-333.237	495.772	-9.94415	
5.25167	-333.013	495.345	-10.1617	
5.25666	-333.093	495.182	-9.61456	
5.26165	-333.054	494.988	-9.3346	
5.26664	-332.717	494.549	-9.83612	
5.27164	-332.505	494.171	-10.0757	
5.27663	-332.594	494.047	-9.55377	
5.28162	-332.551	493.858	-9.29535	
5.28661	-332.212	493.428	-9.7959	
5.2916	-331.995	493.065	-10.0416	
5.2966	-332.057	492.933	-9.51526	
5.30159	-331.986	492.717	-9.24439	
5.30658	-331.608	492.233	-9.76105	
5.31157	-331.335	491.795	-10.0229	
5.31657	-331.361	491.584	-9.51361	
5.32156	-331.26	491.295	-9.25189	
5.32655	-330.851	490.759	-9.74866	
5.33154	-330.564	490.26	-9.99127	
5.33653	-330.577	489.981	-9.45325	
5.34153	-330.455	489.639	-9.16589	
5.34652	-330.01	489.043	-9.66559	
5.35151	-329.694	488.488	-9.90967	
5.3565	-329.675	488.157	-9.37616	
5.36149	-329.508	487.755	-9.09552	
5.36649	-329.043	487.099	-9.59027	
5.37148	-328.702	486.504	-9.8349	
5.37647	-328.677	486.156	-9.28485	
5.38146	-328.531	485.736	-8.97907	
5.38645	-328.066	485.068	-9.46588	
5.39145	-327.727	484.472	-9.71771	
5.39644	-327.699	484.118	-9.19019	
5.40143	-327.54	483.69	-8.91132	
5.40642	-327.073	483.015	-9.40814	
5.41141	-326.74	482.398	-9.66162	
5.41641	-326.721	482.044	-9.12909	
5.4214	-326.553	481.643	-8.82672	
5.42639	-326.065	480.997	-9.32361	
5.43138	-325.736	480.407	-9.58515	
5.43637	-325.724	480.058	-9.05335	
5.44137	-325.57	479.658	-8.7663	
5.44636	-325.113	479.026	-9.27161	
5.45135	-324.81	478.462	-9.5376	
5.45634	-324.805	478.144	-9.00256	
5.46134	-324.639	477.764	-8.7041	
5.46633	-324.165	477.136	-9.19483	
5.47132	-323.851	476.563	-9.45496	
5.47631	-323.844	476.236	-8.94562	
5.4813	-323.682	475.846	-8.66712	
5.4863	-323.218	475.204	-9.16736	
5.49129	-322.91	474.618	-9.43115	
5.49628	-322.916	474.3	-8.89508	
5.50127	-322.761	473.936	-8.5885	
5.50626	-322.304	473.297	-9.07922	
5.51126	-322.012	472.692	-9.34302	
5.51625	-322.006	472.332	-8.82233	
5.52124	-321.832	471.908	-8.52435	
5.52623	-321.351	471.212	-9.0033	
5.53122	-321.026	470.578	-9.26239	
5.53622	-321.004	470.207	-8.73718	
5.54121	-320.811	469.775	-8.43549	
5.5462	-320.323	469.088	-8.93097	
5.55119	-320.007	468.451	-9.20545	
5.55618	-319.987	468.077	-8.70178	
5.56118	-319.818	467.68	-8.42401	
5.56617	-319.367	467.029	-8.9223	
5.57116	-319.074	466.427	-9.19922	
5.57615	-319.075	466.109	-8.68024	
5.58115	-318.914	465.769	-8.37665	
5.58614	-318.478	465.185	-8.88092	
5.59113	-318.219	464.654	-9.18085	
5.59612	-318.248	464.393	-8.69061	
5.60111	-318.123	464.093	-8.4032	
5.60611	-317.708	463.541	-8.89612	
5.6111	-317.457	463.026	-9.17548	
5.61609	-317.498	462.765	-8.66303	
5.62108	-317.368	462.467	-8.35761	
5.62607	-316.937	461.902	-8.84851	
5.63107	-316.676	461.347	-9.14917	
5.63606	-316.7	461.028	-8.65894	
5.64105	-316.539	460.671	-8.35382	
5.64604	-316.085	460.029	-8.83362	
5.65103	-315.797	459.388	-9.12134	
5.65603	-315.794	458.981	-8.62177	
5.66102	-315.592	458.507	-8.30469	
5.66601	-315.088	457.763	-8.7688	
5.671	-314.759	457.036	-9.05896	
5.67599	-314.71	456.544	-8.5766	
5.68099	-314.493	455.999	-8.27698	
5.68598	-313.989	455.19	-8.74658	
5.69097	-313.652	454.418	-9.03589	
5.69596	-313.592	453.89	-8.5437	
5.70096	-313.353	453.329	-8.21576	
5.70595	-312.83	452.529	-8.67902	
5.71094	-312.482	451.75	-8.98071	
5.71593	-312.415	451.227	-8.50739	
5.72092	-312.178	450.684	-8.20105	
5.72592	-311.676	449.891	-8.66742	
5.73091	-311.346	449.134	-8.96546	
5.7359	-311.292	448.638	-8.47376	
5.74089	-311.068	448.121	-8.14703	
5.74588	-310.572	447.361	-8.60999	
5.75088	-310.257	446.637	-8.91852	
5.75587	-310.222	446.174	-8.45349	
5.76086	-310.022	445.698	-8.1322	
5.76585	-309.551	444.986	-8.57617	
5.77084	-309.251	444.317	-8.87958	
5.77584	-309.23	443.902	-8.40613	
5.78083	-309.044	443.469	-8.07416	
5.78582	-308.588	442.782	-8.52002	
5.79081	-308.291	442.099	-8.82544	
5.7958	-308.255	441.657	-8.37207	
5.8008	-308.059	441.18	-8.04932	
5.80579	-307.588	440.443	-8.48151	
5.81078	-307.278	439.712	-8.78259	
5.81577	-307.225	439.206	-8.31	
5.82077	-306.989	438.664	-7.97565	
5.82576	-306.495	437.854	-8.41028	
5.83075	-306.158	437.041	-8.72192	
5.83574	-306.058	436.447	-8.28973	
5.84073	-305.781	435.798	-7.96161	
5.84573	-305.248	434.887	-8.37531	
5.85072	-304.86	433.975	-8.68952	
5.85571	-304.712	433.267	-8.25464	
5.8607	-304.395	432.518	-7.92249	
5.86569	-303.81	431.503	-8.34741	
5.87069	-303.382	430.48	-8.67944	
5.87568	-303.208	429.699	-8.27387	
5.88067	-302.867	428.915	-7.96271	
5.88566	-302.281	427.914	-8.38812	
5.89065	-301.881	426.951	-8.71338	
5.89565	-301.738	426.254	-8.2876	
5.90064	-301.443	425.581	-7.94757	
5.90563	-300.915	424.699	-8.36047	
5.91062	-300.553	423.862	-8.70532	
5.91561	-300.448	423.285	-8.3241	
5.92061	-300.202	422.715	-8.01386	
5.9256	-299.715	421.931	-8.4173	
5.93059	-299.401	421.187	-8.75043	
5.93558	-299.347	420.701	-8.34467	
5.94058	-299.133	420.226	-7.99786	
5.94557	-298.682	419.536	-8.38336	
5.95056	-298.396	418.843	-8.73389	
5.95555	-298.346	418.378	-8.3678	
5.96054	-298.127	417.906	-8.03162	
5.96554	-297.668	417.169	-8.42127	
5.97053	-297.349	416.405	-8.7749	
5.97552	-297.25	415.839	-8.38318	
5.98051	-296.982	415.225	-8.01447	
5.9855	-296.466	414.341	-8.38525	
5.9905	-296.092	413.422	-8.74426	
5.99549	-295.934	412.71	-8.38788	
6.00048	-295.612	411.974	-8.04492	
6.00547	-295.055	410.976	-8.41095	
6.01046	-294.643	409.955	-8.75775	
6.01546	-294.441	409.147	-8.37897	
6.02045	-294.077	408.33	-8.00787	
6.02544	-293.489	407.262	-8.36762	
6.03043	-293.046	406.173	-8.73822	
6.03542	-292.804	405.308	-8.38873	
6.04042	-292.419	404.428	-8.02539	
6.04541	-291.819	403.311	-8.37207	
6.0504	-291.352	402.181	-8.7215	
6.05539	-291.095	401.252	-8.3504	
6.06038	-290.682	400.301	-7.96137	
6.06538	-290.049	399.109	-8.29413	
6.07037	-289.544	397.898	-8.66205	
6.07536	-289.234	396.88	-8.32611	
6.08035	-288.775	395.82	-7.94818	
6.08535	-288.079	394.489	-8.25745	
6.09034	-287.486	393.098	-8.60657	
6.09533	-287.074	391.865	-8.25006	
6.10032	-286.499	390.584	-7.85858	
6.10531	-285.713	389.045	-8.18549	
6.11031	-285.046	387.469	-8.56714	
6.1153	-284.574	386.091	-8.26062	
6.12029	-284.003	384.73	-7.89984	
6.12528	-283.238	383.205	-8.23779	
6.13027	-282.599	381.729	-8.63666	
6.13527	-282.173	380.52	-8.32733	
6.14026	-281.644	379.373	-7.94898	
6.14525	-280.959	378.079	-8.28772	
6.15024	-280.431	376.844	-8.70783	
6.15523	-280.117	375.882	-8.41791	
6.16023	-279.713	374.993	-8.03076	
6.16522	-279.137	373.939	-8.33295	
6.17021	-278.688	372.911	-8.72785	
6.1752	-278.458	372.117	-8.4256	
6.18019	-278.11	371.347	-8.02747	
6.18519	-277.585	370.376	-8.3349	
6.19018	-277.188	369.4	-8.75153	
6.19517	-276.968	368.628	-8.46668	
6.20016	-276.619	367.866	-8.06909	
6.20516	-276.072	366.897	-8.36182	
6.21015	-275.629	365.876	-8.76697	
6.21514	-275.343	365.011	-8.47406	
6.22013	-274.928	364.107	-8.05682	
6.22512	-274.312	362.943	-8.34253	
6.23012	-273.772	361.703	-8.77704	
6.23511	-273.373	360.591	-8.52088	
6.2401	-272.841	359.439	-8.10632	
6.24509	-272.119	358.056	-8.38513	
6.25008	-271.488	356.639	-8.80585	
6.25508	-271.025	355.391	-8.52484	
6.26007	-270.465	354.135	-8.10004	
6.26506	-269.747	352.698	-8.36762	
6.27005	-269.127	351.275	-8.80274	
6.27504	-268.673	350.047	-8.55078	
6.28004	-268.13	348.825	-8.11707	
6.28503	-267.427	347.435	-8.37653	
6.29002	-266.809	346.043	-8.80798	
6.29501	-266.348	344.821	-8.54291	
6.3	-265.791	343.609	-8.1026	
6.305	-265.072	342.2	-8.34882	
6.30999	-264.443	340.755	-8.78937	
6.31498	-263.945	339.462	-8.54883	
6.31997	-263.347	338.135	-8.11847	
6.32497	-262.58	336.587	-8.36524	
6.32996	-261.865	334.98	-8.78803	
6.33495	-261.289	333.516	-8.51953	
6.33994	-260.611	332.042	-8.05725	
6.34493	-259.775	330.364	-8.30731	
6.34993	-259.02	328.68	-8.76874	
6.35492	-258.411	327.176	-8.539	
6.35991	-257.735	325.677	-8.10059	
6.3649	-256.91	324.033	-8.33649	
6.36989	-256.167	322.406	-8.78528	
6.37489	-255.574	320.963	-8.55005	
6.37988	-254.911	319.535	-8.10614	
6.38487	-254.117	317.951	-8.35974	
6.38986	-253.404	316.356	-8.83319	
6.39485	-252.824	314.927	-8.61743	
6.39985	-252.163	313.523	-8.17468	
6.40484	-251.373	311.97	-8.4223	
6.40983	-250.66	310.427	-8.88623	
6.41482	-250.079	309.032	-8.65601	
6.41981	-249.428	307.633	-8.2121	
6.42481	-248.641	306.091	-8.46063	
6.4298	-247.924	304.547	-8.95923	
6.43479	-247.331	303.149	-8.76984	
6.43978	-246.674	301.761	-8.30438	
6.44478	-245.899	300.219	-8.51758	
6.44977	-245.185	298.678	-8.98682	
6.45476	-244.601	297.308	-8.75433	
6.45975	-243.964	295.957	-8.26318	
6.46474	-243.206	294.469	-8.48706	
6.46974	-242.517	292.981	-8.98438	
6.47473	-241.965	291.653	-8.76929	
6.47972	-241.358	290.363	-8.28467	
6.48471	-240.635	288.958	-8.49829	
6.4897	-239.98	287.558	-8.97174	
6.4947	-239.458	286.311	-8.74988	
6.49969	-238.874	285.096	-8.25855	
6.50468	-238.175	283.75	-8.48761	
6.50967	-237.551	282.402	-9.00708	
6.51466	-237.042	281.195	-8.8009	
6.51966	-236.471	279.997	-8.30066	
6.52465	-235.785	278.677	-8.513	
6.52964	-235.153	277.362	-9.00116	
6.53463	-234.648	276.177	-8.7804	
6.53962	-234.087	275.001	-8.28034	
6.54462	-233.397	273.695	-8.48895	
6.54961	-232.769	272.381	-9.00409	
6.5546	-232.267	271.207	-8.81024	
6.55959	-231.713	270.057	-8.30859	
6.56459	-231.053	268.8	-8.51672	
6.56958	-230.444	267.55	-9.01569	
6.57457	-229.951	266.425	-8.78912	
6.57956	-229.411	265.304	-8.2699	
6.58455	-228.745	264.078	-8.4809	
6.58955	-228.139	262.842	-9.00128	
6.59454	-227.649	261.709	-8.80048	
6.59953	-227.092	260.555	-8.2768	
6.60452	-226.405	259.264	-8.47015	
6.60951	-225.744	257.936	-8.98004	
6.61451	-225.179	256.659	-8.76325	
6.6195	-224.537	255.354	-8.23419	
6.62449	-223.754	253.903	-8.44415	
6.62948	-223.01	252.388	-8.97003	
6.63447	-222.359	250.933	-8.75958	
6.63947	-221.622	249.439	-8.22852	
6.64446	-220.75	247.798	-8.42444	
6.64945	-219.91	246.11	-8.94092	
6.65444	-219.151	244.459	-8.7229	
6.65943	-218.31	242.76	-8.18677	
6.66443	-217.342	240.937	-8.4035	
6.66942	-216.406	239.072	-8.9422	
6.67441	-215.558	237.263	-8.73724	
6.6794	-214.653	235.444	-8.21497	
6.68439	-213.62	233.526	-8.41156	
6.68939	-212.617	231.597	-8.92926	
6.69438	-211.731	229.77	-8.73181	
6.69937	-210.81	227.973	-8.20508	
6.70436	-209.798	226.122	-8.40918	
6.70936	-208.851	224.308	-8.95514	
6.71435	-208.025	222.62	-8.75617	
6.71934	-207.182	220.997	-8.21021	
6.72433	-206.265	219.36	-8.39917	
6.72932	-205.412	217.775	-8.91815	
6.73432	-204.692	216.323	-8.69916	
6.73931	-203.954	214.929	-8.1582	
6.7443	-203.134	213.51	-8.3656	
6.74929	-202.377	212.124	-8.9054	
6.75428	-201.746	210.84	-8.7027	
6.75928	-201.088	209.589	-8.14655	
6.76427	-200.327	208.295	-8.32355	
6.76926	-199.622	207.03	-8.8551	
6.77425	-199.039	205.849	-8.64813	
6.77924	-198.407	204.661	-8.08655	
6.78424	-197.655	203.407	-8.2757	
6.78923	-196.947	202.155	-8.82312	
6.79422	-196.347	200.959	-8.62885	
6.79921	-195.706	199.776	-8.07562	
6.8042	-194.972	198.56	-8.25903	
6.8092	-194.265	197.337	-8.78528	
6.81419	-193.632	196.11	-8.57294	
6.81918	-192.917	194.807	-8.02295	
6.82417	-192.063	193.404	-8.22095	
6.82917	-191.232	191.969	-8.76618	
6.83416	-190.487	190.55	-8.56641	
6.83915	-189.678	189.099	-7.99963	
6.84414	-188.74	187.567	-8.15637	
6.84913	-187.811	185.997	-8.67774	
6.85413	-186.957	184.416	-8.45685	
6.85912	-186.029	182.766	-7.88989	
6.86411	-184.948	181.028	-8.07434	
6.8691	-183.895	179.266	-8.60083	
6.87409	-182.93	177.508	-8.39136	
6.87909	-181.887	175.738	-7.82794	
6.88408	-180.748	173.952	-7.97962	
6.88907	-179.681	172.207	-8.49133	
6.89406	-178.741	170.549	-8.29608	
6.89905	-177.787	168.948	-7.74097	
6.90405	-176.761	167.373	-7.91766	
6.90904	-175.817	165.862	-8.46094	
6.91403	-175.017	164.45	-8.25348	
6.91902	-174.212	163.101	-7.68482	
6.92401	-173.346	161.808	-7.84583	
6.92901	-172.557	160.603	-8.36237	
6.934	-171.916	159.495	-8.17432	
6.93899	-171.285	158.459	-7.64856	
6.94398	-170.595	157.467	-7.85303	
6.94898	-169.967	156.54	-8.39899	
6.95397	-169.467	155.689	-8.2179	
6.95896	-168.966	154.871	-7.68677	
6.96395	-168.374	154.051	-7.86102	
6.96894	-167.785	153.221	-8.38947	
6.97394	-167.257	152.344	-8.2179	
6.97893	-166.658	151.38	-7.7027	
6.98392	-165.903	150.347	-7.8913	
6.98891	-165.13	149.27	-8.4419	
6.9939	-164.441	148.154	-8.2815	
6.9989	-163.72	146.999	-7.73914	
7.00389	-162.869	145.807	-7.90119	
7.00888	-162.031	144.608	-8.40381	
7.01387	-161.279	143.402	-8.20508	
7.01886	-160.478	142.167	-7.67145	
7.02386	-159.561	140.907	-7.83893	
7.02885	-158.645	139.649	-8.36145	
7.03384	-157.829	138.348	-8.16962	
7.03883	-156.944	137.003	-7.62	
7.04382	-155.906	135.626	-7.76856	
7.04882	-154.859	134.205	-8.26538	
7.05381	-153.873	132.747	-8.08563	
7.0588	-152.833	131.23	-7.5509	
7.06379	-151.656	129.675	-7.70636	
7.06879	-150.477	128.128	-8.22205	
7.07378	-149.4	126.579	-8.04828	
7.07877	-148.303	125.012	-7.52728	
7.08376	-147.1	123.476	-7.6875	
7.08875	-145.912	121.972	-8.17951	
7.09375	-144.836	120.473	-7.99585	
7.09874	-143.752	118.982	-7.47699	
7.10373	-142.547	117.497	-7.62488	
7.10872	-141.341	116.02	-8.1153	
7.11371	-140.218	114.508	-7.94898	
7.11871	-139.042	112.945	-7.44116	
7.1237	-137.712	111.363	-7.57855	
7.12869	-136.345	109.761	-8.04297	
7.13368	-135.061	108.108	-7.8548	
7.13867	-133.752	106.434	-7.35181	
7.14367	-132.327	104.795	-7.49603	
7.14866	-130.919	103.195	-7.96881	
7.15365	-129.64	101.621	-7.81928	
7.15864	-128.393	100.086	-7.33942	
7.16363	-127.094	98.6531	-7.48859	
7.16863	-125.857	97.3223	-7.96295	
7.17362	-124.766	96.0213	-7.80628	
7.17861	-123.712	94.7508	-7.33899	
7.1836	-122.59	93.57	-7.49512	
7.1886	-121.517	92.471	-7.96765	
7.19359	-120.603	91.3995	-7.83533	
7.19858	-119.72	90.3519	-7.37811	
7.20357	-118.756	89.3859	-7.51727	
7.20856	-117.833	88.4973	-7.97656	
7.21356	-117.055	87.6101	-7.84674	
7.21855	-116.293	86.7228	-7.42224	
7.22354	-115.425	85.8812	-7.5907	
7.22853	-114.571	85.0689	-8.04547	
7.23352	-113.848	84.2368	-7.91089	
7.23852	-113.134	83.3992	-7.47717	
7.24351	-112.293	82.5968	-7.61554	
7.2485	-111.434	81.8054	-8.06342	
7.25349	-110.684	80.9811	-7.94501	
7.25848	-109.93	80.1392	-7.53192	
7.26348	-109.051	79.3363	-7.6872	
7.26847	-108.171	78.5522	-8.13751	
7.27346	-107.379	77.7175	-8.03375	
7.27845	-106.52	76.8151	-7.62171	
7.28344	-105.469	75.8619	-7.76318	
7.28844	-104.327	74.8571	-8.21527	
7.29343	-103.209	73.7609	-8.12335	
7.29842	-102.052	72.5888	-7.73297	
7.30341	-100.767	71.4357	-7.86078	
7.3084	-99.4469	70.2939	-8.27246	
7.3134	-98.2228	69.101	-8.15357	
7.31839	-97.0075	67.895	-7.73248	
7.32338	-95.674	66.7341	-7.83551	
7.32837	-94.3298	65.6095	-8.23474	
7.33337	-93.1111	64.473	-8.1391	
7.33836	-91.9156	63.3446	-7.78632	
7.34335	-90.6069	62.2857	-7.94183	
7.34834	-89.3176	61.2964	-8.3642	
7.35333	-88.2041	60.3137	-8.2887	
7.35833	-87.1632	59.3505	-7.93933	
7.36332	-86.0489	58.4733	-8.04041	
7.36831	-84.9451	57.6423	-8.41437	
7.3733	-83.9754	56.7872	-8.3371	
7.37829	-83.0138	55.9054	-7.98798	
7.38329	-81.8981	55.0483	-8.08917	
7.38828	-80.744	54.1979	-8.44519	
7.39327	-79.6879	53.2982	-8.36249	
7.39826	-78.6268	52.3754	-8.02478	
7.40325	-77.4504	51.506	-8.12793	
7.40825	-76.2628	50.6763	-8.48743	
7.41324	-75.2057	49.8244	-8.43091	
7.41823	-74.1768	48.9689	-8.12457	
7.42322	-73.0505	48.1619	-8.23792	
7.42821	-71.9313	47.4067	-8.59699	
7.43321	-70.9442	46.6372	-8.54291	
7.4382	-70.0081	45.8594	-8.24231	
7.44319	-68.9732	45.1473	-8.32642	
7.44818	-67.9153	44.4747	-8.6543	
7.45318	-66.9765	43.7629	-8.6131	
7.45817	-66.0682	43.0356	-8.33521	
7.46316	-65.0372	42.3458	-8.4234	
7.46815	-63.9715	41.6701	-8.75366	
7.47314	-63.0109	40.9703	-8.71997	
7.47814	-62.072	40.2635	-8.44989	
7.48313	-61.0383	39.5935	-8.54431	
7.48812	-59.9894	38.9617	-8.87604	
7.49311	-59.0688	38.3195	-8.85529	
7.4981	-58.1992	37.6726	-8.60883	
7.5031	-57.2478	37.071	-8.70093	
7.50809	-56.2882	36.5112	-9.01672	
7.51308	-55.4643	35.954	-9.01239	
7.51807	-54.722	35.4031	-8.76856	
7.52306	-53.9124	34.9112	-8.82483	
7.52806	-53.0933	34.4569	-9.11334	
7.53305	-52.3949	33.9793	-9.09552	
7.53804	-51.7466	33.4888	-8.85803	
7.54303	-51.0032	33.0418	-8.91596	
7.54802	-50.2268	32.6252	-9.18933	
7.55302	-49.5644	32.1814	-9.17389	
7.55801	-48.9606	31.7296	-8.93628	
7.563	-48.2678	31.324	-8.98706	
7.56799	-47.545	30.9485	-9.25971	
7.57299	-46.9255	30.5469	-9.25757	
7.57798	-46.341	30.1214	-9.04004	
7.58297	-45.6606	29.7277	-9.08679	
7.58796	-44.9376	29.3593	-9.35187	
7.59295	-44.2976	28.9575	-9.36347	
7.59795	-43.6936	28.5292	-9.151	
7.60294	-42.9907	28.1318	-9.18274	
7.60793	-42.2233	27.7486	-9.44251	
7.61292	-41.5432	27.3293	-9.46185	
7.61791	-40.9114	26.8976	-9.25684	
7.62291	-40.1893	26.4945	-9.29498	
7.6279	-39.4193	26.1137	-9.54645	
7.63289	-38.7365	25.7047	-9.57379	
7.63788	-38.1022	25.272	-9.37219	
7.64287	-37.3862	24.8647	-9.3949	
7.64787	-36.61	24.4852	-9.64295	
7.65286	-35.9073	24.0851	-9.67322	
7.65785	-35.2637	23.6498	-9.49725	
7.66284	-34.5281	23.245	-9.52893	
7.66783	-33.7286	22.8741	-9.76288	
7.67283	-33.0198	22.4781	-9.79529	
7.67782	-32.3782	22.0582	-9.62702	
7.68281	-31.6556	21.6702	-9.64673	
7.6878	-30.8746	21.3096	-9.87958	
7.6928	-30.1897	20.9301	-9.91358	
7.69779	-29.5926	20.5385	-9.73822	
7.70278	-28.9277	20.1794	-9.75672	
7.70777	-28.2119	19.8647	-9.98609	
7.71276	-27.5851	19.5333	-10.0296	
7.71776	-27.0396	19.1771	-9.86005	
7.72275	-26.4327	18.8543	-9.87555	
7.72774	-25.7684	18.5735	-10.0979	
7.73273	-25.1993	18.2812	-10.1421	
7.73772	-24.7164	17.9682	-9.9884	
7.74272	-24.1763	17.6873	-10.0016	
7.74771	-23.5798	17.4453	-10.2017	
7.7527	-23.0711	17.1826	-10.245	
7.75769	-22.6436	16.8956	-10.0925	
7.76268	-22.1604	16.638	-10.09	
7.76768	-21.6103	16.4169	-10.2788	
7.77267	-21.1288	16.1801	-10.3176	
7.77766	-20.7268	15.9184	-10.1763	
7.78265	-20.2695	15.6857	-10.1843	
7.78764	-19.7634	15.4849	-10.3793	
7.79264	-19.3387	15.2725	-10.4232	
7.79763	-18.9921	15.0428	-10.2733	
7.80262	-18.5948	14.8345	-10.2611	
7.80761	-18.129	14.6509	-10.4361	
7.81261	-17.7172	14.454	-10.4886	
7.8176	-17.3751	14.2314	-10.3604	
7.82259	-16.9705	14.0244	-10.3503	
7.82758	-16.4979	13.842	-10.5258	
7.83257	-16.0878	13.6389	-10.5797	
7.83757	-15.7545	13.4194	-10.4471	
7.84256	-15.3793	13.233	-10.4346	
7.84755	-14.9443	13.0757	-10.6069	
7.85254	-14.5725	12.9044	-10.6616	
7.85753	-14.2866	12.7169	-10.5431	
7.86253	-13.962	12.5457	-10.5351	
7.86752	-13.5748	12.4017	-10.6895	
7.87251	-13.2363	12.2437	-10.7327	
7.8775	-12.959	12.0538	-10.6011	
7.88249	-12.6259	11.8807	-10.5839	
7.88749	-12.2191	11.7293	-10.7453	
7.89248	-11.8491	11.5599	-10.8015	
7.89747	-11.5386	11.3655	-10.6847	
7.90246	-11.172	11.171	-10.6774	
7.90745	-10.7219	10.9979	-10.8367	
7.91245	-10.316	10.8179	-10.894	
7.91744	-9.99182	10.6094	-10.7831	
7.92243	-9.62647	10.4251	-10.7652	
7.92742	-9.20392	10.2676	-10.9148	
7.93241	-8.83417	10.0995	-10.9709	
7.93741	-8.53796	9.91132	-10.8663	
7.9424	-8.20691	9.73682	-10.8558	
7.94739	-7.81213	9.59412	-10.9955	
7.95238	-7.46356	9.43134	-11.0432	
7.95738	-7.18488	9.25366	-10.947	
7.96237	-6.87463	9.09723	-10.9324	
7.96736	-6.50946	8.96271	-11.0617	
7.97235	-6.20593	8.82861	-11.1165	
7.97734	-5.99347	8.68695	-11.0324	
7.98234	-5.76428	8.56671	-11.0146	
7.98733	-5.49469	8.4787	-11.1312	
7.99232	-5.28626	8.38745	-11.1781	
7.99731	-5.15759	8.2768	-11.0782	
8.0023	-5.00708	8.1864	-11.051	
8.0073	-4.80579	8.12756	-11.1658	
8.01229	-4.64142	8.06098	-11.2027	
8.01728	-4.54584	7.97315	-11.1048	
8.02227	-4.42084	7.89697	-11.0815	
8.02726	-4.23224	7.84479	-11.1959	
8.03226	-4.07007	7.77857	-11.2354	
8.03725	-3.9696	7.69049	-11.1349	
8.04224	-3.82782	7.60956	-11.1036	
8.04723	-3.60706	7.54108	-11.2116	
8.05222	-3.41296	7.45868	-11.2641	
8.05722	-3.27161	7.35089	-11.1876	
8.06221	-3.09094	7.25244	-11.1628	
8.0672	-2.85095	7.16943	-11.2605	
8.07219	-2.63886	7.06806	-11.3087	
8.07719	-2.47565	6.95148	-11.2273	
8.08218	-2.28235	6.84576	-11.2035	
8.08717	-2.03442	6.75806	-11.306	
8.09216	-1.82593	6.66895	-11.3521	
8.09715	-1.67572	6.56659	-11.2835	
8.10215	-1.49695	6.47046	-11.2585	
8.10714	-1.27722	6.39575	-11.3519	
8.11213	-1.10321	6.30945	-11.3954	
8.11712	-0.990723	6.20886	-11.3245	
8.12211	-0.849732	6.13489	-11.2938	
8.12711	-0.660095	6.08661	-11.375	
8.1321	-0.517944	6.01874	-11.4224	
8.13709	-0.442261	5.93195	-11.3545	
8.14208	-0.340271	5.87518	-11.3261	
8.14707	-0.191467	5.83667	-11.4075	
8.15207	-0.0825806	5.78577	-11.445	
8.15706	-0.0330811	5.72107	-11.3719	
8.16205	0.0437012	5.6687	-11.3464	
8.16704	0.166199	5.64374	-11.419	
8.17203	0.258179	5.61041	-11.4398	
8.17703	0.293335	5.55841	-11.366	
8.18202	0.355774	5.50971	-11.3459	
8.18701	0.472656	5.48041	-11.4254	
8.192	0.562439	5.44806	-11.4567	
8.197	0.607788	5.39594	-11.39	
8.20199	0.684143	5.34302	-11.361	
8.20698	0.81311	5.30096	-11.4282	
8.21197	0.918213	5.26001	-11.4581	
8.21696	0.967713	5.20062	-11.3909	
8.22196	1.04083	5.1416	-11.3647	
8.22695	1.17242	5.1001	-11.4346	
8.23194	1.27777	5.05835	-11.4647	
8.23693	1.33014	5.00031	-11.4033	
8.24192	1.40765	4.95252	-11.3699	
8.24692	1.53168	4.90985	-11.4254	
8.25191	1.63336	4.85559	-11.457	
8.2569	1.68677	4.80286	-11.3982	
8.26189	1.75574	4.75287	-11.3685	
8.26688	1.86371	4.70538	-11.4242	
8.27188	1.94873	4.66443	-11.4526	
8.27687	1.9884	4.62299	-11.3925	
8.28186	2.04211	4.58057	-11.3617	
8.28685	2.13391	4.54462	-11.4164	
8.29184	2.21039	4.50647	-11.4381	
8.29684	2.24548	4.46509	-11.3816	
8.30183	2.29431	4.4325	-11.351	
8.30682	2.37805	4.40485	-11.396	
8.31181	2.43964	4.37195	-11.419	
8.31681	2.4563	4.33246	-11.3652	
8.3218	2.49408	4.30164	-11.3362	
8.32679	2.57105	4.28314	-11.3844	
8.33178	2.63281	4.25855	-11.4047	
8.33677	2.65399	4.22174	-11.3459	
8.34177	2.67828	4.19098	-11.3117	
8.34676	2.73975	4.17035	-11.3607	
8.35175	2.79364	4.14105	-11.3895	
8.35674	2.80841	4.10388	-11.3377	
8.36173	2.82782	4.08386	-11.3076	
8.36673	2.8927	4.07391	-11.3557	
8.37172	2.94989	4.04553	-11.3745	
8.37671	2.95978	4.01148	-11.3153	
8.3817	2.97858	3.98871	-11.2854	
8.38669	3.03925	3.97089	-11.3262	
8.39169	3.08978	3.94952	-11.3511	
8.39668	3.10321	3.91724	-11.304	
8.40167	3.12762	3.88953	-11.2708	
8.40666	3.19031	3.87146	-11.3062	
8.41165	3.24066	3.8468	-11.319	
8.41665	3.2428	3.82013	-11.268	
8.42164	3.2605	3.79517	-11.239	
8.42663	3.31866	3.77728	-11.2722	
8.43162	3.354	3.75848	-11.28	
8.43661	3.35345	3.73023	-11.2255	
8.44161	3.36823	3.70563	-11.1958	
8.4466	3.42157	3.69867	-11.2324	
8.45159	3.45868	3.69	-11.2464	
8.45658	3.45105	3.66022	-11.1996	
8.46158	3.45581	3.63135	-11.17	
8.46657	3.49719	3.6236	-11.1995	
8.47156	3.53259	3.61737	-11.2111	
8.47655	3.53357	3.58923	-11.1577	
8.48154	3.53741	3.56287	-11.1292	
8.48654	3.57495	3.55811	-11.1592	
8.49153	3.60254	3.54736	-11.1756	
8.49652	3.5954	3.52338	-11.1386	
8.50151	3.59808	3.50946	-11.1009	
8.5065	3.63922	3.50916	-11.123	
8.5115	3.66351	3.49854	-11.1396	
8.51649	3.65186	3.47461	-11.0949	
8.52148	3.6568	3.45868	-11.0664	
8.52647	3.69269	3.45422	-11.0933	
8.53146	3.71582	3.4444	-11.1064	
8.53646	3.70947	3.43195	-11.0566	
8.54145	3.7157	3.41773	-11.0214	
8.54644	3.75324	3.40186	-11.0475	
8.55143	3.77643	3.39154	-11.0618	
8.55642	3.76117	3.36755	-11.0165	
8.56142	3.76459	3.34979	-10.9794	
8.56641	3.79919	3.34888	-10.997	
8.5714	3.81555	3.33765	-11.0042	
8.57639	3.80658	3.31567	-10.9648	
8.58139	3.81262	3.29889	-10.938	
8.58638	3.84558	3.28888	-10.952	
8.59137	3.86664	3.27716	-10.9474	
8.59636	3.85461	3.26141	-10.9041	
8.60135	3.85193	3.24616	-10.8724	
8.60635	3.88117	3.24048	-10.8904	
8.61134	3.90149	3.23193	-10.9009	
8.61633	3.88922	3.21314	-10.8597	
8.62132	3.88446	3.19751	-10.819	
8.62631	3.91962	3.19067	-10.8288	
8.63131	3.94177	3.17737	-10.8322	
8.6363	3.92481	3.15826	-10.786	
8.64129	3.91907	3.14575	-10.7535	
8.64628	3.94763	3.12677	-10.7603	
8.65127	3.96649	3.11572	-10.751	
8.65627	3.9541	3.104	-10.7	
8.66126	3.95563	3.08814	-10.6635	
8.66625	3.98267	3.07929	-10.6642	
8.67124	3.99573	3.06995	-10.6606	
8.67623	3.98163	3.05774	-10.6127	
8.68123	3.97284	3.03796	-10.5701	
8.68622	3.99377	3.02264	-10.5751	
8.69121	4.00842	3.01642	-10.5729	
8.6962	3.98785	3.00586	-10.5301	
8.7012	3.98224	2.99579	-10.4938	
8.70619	4.00391	2.98584	-10.4995	
8.71118	4.01276	2.97772	-10.4958	
8.71617	4.00079	2.97034	-10.4495	
8.72116	3.99292	2.95715	-10.4094	
8.72616	4.00488	2.94946	-10.4123	
8.73115	4.00806	2.94324	-10.4084	
8.73614	3.99915	2.92883	-10.3621	
8.74113	3.99677	2.92279	-10.3247	
8.74612	4.00507	2.92896	-10.3258	
8.75112	4.00842	2.92053	-10.3173	
8.75611	3.9917	2.9043	-10.2764	
8.7611	3.98053	2.89288	-10.2389	
8.76609	3.99469	2.89038	-10.2323	
8.77108	4.00055	2.88806	-10.228	
8.77608	3.97968	2.88153	-10.1912	
8.78107	3.96564	2.87085	-10.1523	
8.78606	3.97522	2.86408	-10.1448	
8.79105	3.98804	2.86237	-10.1354	
8.79604	3.97052	2.85211	-10.0921	
8.80104	3.95349	2.84619	-10.0606	
8.80603	3.96399	2.84729	-10.0527	
8.81102	3.96698	2.83734	-10.0319	
8.81601	3.95325	2.83032	-9.98792	
8.82101	3.93579	2.82324	-9.95117	
8.826	3.94037	2.81366	-9.94165	
8.83099	3.94403	2.81018	-9.91669	
8.83598	3.9295	2.8078	-9.87488	
8.84097	3.92011	2.80084	-9.83978	
8.84597	3.91486	2.79523	-9.82257	
8.85096	3.91028	2.7948	-9.7984	
8.85595	3.89069	2.78442	-9.75189	
8.86094	3.87769	2.77606	-9.7157	
8.86593	3.88471	2.77368	-9.70337	
8.87093	3.8775	2.76971	-9.68671	
8.87592	3.86084	2.75708	-9.64246	
8.88091	3.85101	2.75708	-9.59821	
8.8859	3.84863	2.75861	-9.57044	
8.89089	3.84497	2.74707	-9.54767	
8.89589	3.8299	2.74304	-9.51203	
8.90088	3.81683	2.74164	-9.47785	
8.90587	3.80945	2.74292	-9.46503	
8.91086	3.79694	2.73889	-9.44977	
8.91585	3.78125	2.72882	-9.40747	
8.92085	3.77429	2.72339	-9.36371	
8.92584	3.77374	2.72559	-9.35046	
8.93083	3.76898	2.72278	-9.33484	
8.93582	3.75348	2.71753	-9.29199	
8.94082	3.73993	2.71106	-9.24536	
8.94581	3.73798	2.70856	-9.21948	
8.9508	3.72162	2.7096	-9.18787	
8.95579	3.69733	2.69806	-9.1297	
8.96078	3.68469	2.69379	-9.07886	
8.96578	3.67694	2.69489	-9.04382	
8.97077	3.66754	2.6983	-9.00232	
8.97576	3.64087	2.69861	-8.95252	
8.98075	3.61536	2.68866	-8.89252	
8.98574	3.60815	2.68366	-8.84454	
8.99074	3.59711	2.68665	-8.81946	
8.99573	3.57379	2.68207	-8.77179	
9.00072	3.55267	2.67438	-8.71619	
9.00571	3.54242	2.67767	-8.68402	
9.0107	3.5329	2.68597	-8.65631	
9.0157	3.51416	2.68378	-8.6109	
9.02069	3.49262	2.67731	-8.56775	
9.02568	3.48041	2.67664	-8.54096	
9.03067	3.46845	2.67242	-8.50671	
9.03566	3.44959	2.6745	-8.45801	
9.04066	3.42694	2.67297	-8.4068	
9.04565	3.41394	2.66937	-8.36902	
9.05064	3.40039	2.67041	-8.33338	
9.05563	3.37616	2.66583	-8.28015	
9.06062	3.34827	2.67023	-8.22815	
9.06562	3.33453	2.67896	-8.18811	
9.07061	3.32581	2.67041	-8.13727	
9.0756	3.29913	2.66119	-8.07782	
9.08059	3.27539	2.66595	-8.02319	
9.08559	3.26038	2.66687	-7.97675	
9.09058	3.24341	2.664	-7.92822	
9.09557	3.21552	2.66187	-7.87	
9.10056	3.19458	2.66498	-7.81445	
9.10555	3.1767	2.66907	-7.7688	
9.11055	3.15173	2.66687	-7.72278	
9.11554	3.13202	2.67255	-7.67023	
9.12053	3.11401	2.67261	-7.62042	
9.12552	3.1012	2.66962	-7.57581	
9.13051	3.07904	2.67169	-7.53235	
9.13551	3.05444	2.66614	-7.47931	
9.1405	3.03412	2.66455	-7.43536	
9.14549	3.01746	2.66614	-7.39484	
9.15048	2.99774	2.6698	-7.34796	
9.15547	2.97064	2.67554	-7.30139	
9.16047	2.9491	2.67468	-7.24854	
9.16546	2.93579	2.67731	-7.20728	
9.17045	2.92322	2.68335	-7.17261	
9.17544	2.89471	2.68817	-7.11652	
9.18043	2.86591	2.69031	-7.05957	
9.18543	2.85541	2.6908	-7.02045	
9.19042	2.83734	2.69147	-6.97064	
9.19541	2.81049	2.68768	-6.91663	
9.2004	2.79016	2.69055	-6.87274	
9.2054	2.77332	2.70087	-6.83081	
9.21039	2.75482	2.70636	-6.78998	
9.21538	2.73077	2.69861	-6.74335	
9.22037	2.70966	2.70197	-6.69544	
9.22536	2.68713	2.70868	-6.65363	
9.23036	2.66095	2.7016	-6.60297	
9.23535	2.6355	2.70221	-6.5459	
9.24034	2.61224	2.71362	-6.49103	
9.24533	2.59534	2.72137	-6.44482	
9.25032	2.5838	2.72009	-6.39887	
9.25532	2.55481	2.72522	-6.34399	
9.26031	2.51965	2.73145	-6.2868	
9.2653	2.49994	2.72681	-6.23279	
9.27029	2.47644	2.73486	-6.17749	
9.27528	2.43756	2.7497	-6.11401	
9.28028	2.41327	2.74829	-6.05982	
9.28527	2.39728	2.74548	-6.00061	
9.29026	2.36273	2.7442	-5.93994	
9.29525	2.33063	2.7547	-5.88629	
9.30024	2.30615	2.76379	-5.83173	
9.30524	2.2771	2.76465	-5.77252	
9.31023	2.24835	2.77319	-5.71173	
9.31522	2.22852	2.77319	-5.65277	
9.32021	2.20142	2.78076	-5.58734	
9.32521	2.16974	2.78778	-5.53156	
9.3302	2.14673	2.78735	-5.48724	
9.33519	2.11615	2.79242	-5.42963	
9.34018	2.08478	2.79303	-5.36664	
9.34517	2.06451	2.80158	-5.31476	
9.35017	2.04401	2.81146	-5.26923	
9.35516	2.01587	2.81232	-5.21997	
9.36015	1.99097	2.81738	-5.16437	
9.36514	1.97223	2.82208	-5.11713	
9.37013	1.94739	2.82105	-5.07697	
9.37513	1.92334	2.82465	-5.0307	
9.38012	1.90833	2.83496	-4.97577	
9.38511	1.88593	2.8374	-4.93262	
9.3901	1.85834	2.83698	-4.88953	
9.39509	1.83405	2.83765	-4.83795	
9.40009	1.80524	2.84137	-4.78735	
9.40508	1.78882	2.84814	-4.74036	
9.41007	1.76532	2.85407	-4.69666	
9.41506	1.73096	2.85852	-4.64447	
9.42005	1.70941	2.86749	-4.58814	
9.42505	1.68311	2.87927	-4.53931	
9.43004	1.6571	2.87842	-4.49445	
9.43503	1.63989	2.87976	-4.44952	
9.44002	1.61761	2.888	-4.40613	
9.44502	1.59363	2.89343	-4.35504	
9.45001	1.56854	2.89594	-4.31628	
9.455	1.54657	2.89783	-4.276	
9.45999	1.53198	2.89771	-4.22699	
9.46498	1.51166	2.90369	-4.18439	
9.46998	1.49115	2.91107	-4.13934	
9.47497	1.46326	2.91803	-4.09808	
9.47996	1.43787	2.91864	-4.05536	
9.48495	1.42242	2.91949	-4.01489	
9.48994	1.40405	2.93317	-3.97553	
9.49494	1.37958	2.94147	-3.93671	
9.49993	1.3446	2.94177	-3.89319	
9.50492	1.33026	2.94977	-3.84808	
9.50991	1.31793	2.95447	-3.80817	
9.5149	1.2832	2.95569	-3.7652	
9.5199	1.25421	2.95746	-3.71143	
9.52489	1.23096	2.96417	-3.66138	
9.52988	1.21088	2.9743	-3.61206	
9.53487	1.18011	2.97089	-3.55273	
9.53986	1.14459	2.97772	-3.49603	
9.54486	1.11188	2.99103	-3.43555	
9.54985	1.07855	3.00116	-3.36987	
9.55484	1.0437	3.00775	-3.30676	
9.55983	1.00635	3.00879	-3.24115	
9.56483	0.975647	3.01666	-3.17114	
9.56982	0.937744	3.02649	-3.1084	
9.57481	0.900452	3.03571	-3.04999	
9.5798	0.866638	3.04352	-2.97528	
9.58479	0.828308	3.05664	-2.90033	
9.58979	0.788574	3.06903	-2.84906	
9.59478	0.75116	3.07434	-2.79547	
9.59977	0.71991	3.06897	-2.72687	
9.60476	0.684265	3.07031	-2.66095	
9.60975	0.649353	3.08917	-2.59894	
9.61475	0.611939	3.09894	-2.52942	
9.61974	0.569702	3.09668	-2.46521	
9.62473	0.541809	3.1037	-2.40808	
9.62972	0.509461	3.11511	-2.3468	
9.63471	0.471008	3.12317	-2.28839	
9.63971	0.441223	3.13861	-2.22821	
9.6447	0.410523	3.14844	-2.1684	
9.64969	0.376831	3.15149	-2.11133	
9.65468	0.335999	3.15802	-2.05444	
9.65967	0.296936	3.16626	-1.99854	
9.66467	0.266113	3.17859	-1.93366	
9.66966	0.236511	3.1803	-1.875	
9.67465	0.201111	3.18109	-1.82147	
9.67964	0.159607	3.19202	-1.75183	
9.68463	0.123291	3.20075	-1.68591	
9.68963	0.0915527	3.2066	-1.6333	
9.69462	0.0525513	3.21521	-1.57806	
9.69961	0.0131226	3.22406	-1.51386	
9.7046	-0.0177002	3.23352	-1.45288	
9.7096	-0.052063	3.24262	-1.39539	
9.71459	-0.0908203	3.24731	-1.33264	
9.71958	-0.130554	3.258	-1.27435	
9.72457	-0.169434	3.27069	-1.22119	
9.72956	-0.199036	3.28082	-1.1712	
9.73456	-0.23468	3.28967	-1.11298	
9.73955	-0.273865	3.29529	-1.04785	
9.74454	-0.303589	3.29901	-0.991699	
9.74953	-0.340027	3.30267	-0.940552	
9.75452	-0.380676	3.31061	-0.887756	
9.75952	-0.414734	3.32111	-0.835449	
9.76451	-0.449219	3.32251	-0.787659	
9.7695	-0.484436	3.33264	-0.732178	
9.77449	-0.520508	3.34998	-0.680359	
9.77948	-0.550049	3.35437	-0.630188	
9.78448	-0.578003	3.36353	-0.571899	
9.78947	-0.612366	3.37628	-0.522095	
9.79446	-0.653137	3.38019	-0.474304	
9.79945	-0.6922	3.38391	-0.422913	
9.80444	-0.733521	3.39325	-0.362915	
9.80944	-0.775574	3.40515	-0.299744	
9.81443	-0.812988	3.40973	-0.243652	
9.81942	-0.850464	3.41864	-0.187866	
9.82441	-0.890259	3.42712	-0.119629	
9.82941	-0.933472	3.4342	-0.0546875	
9.8344	-0.970459	3.44702	-0.00231934	
9.83939	-1.01544	3.45331	0.0560303	
9.84438	-1.05878	3.46252	0.115479	
9.84937	-1.10761	3.47723	0.171631	
9.85437	-1.15723	3.48846	0.234802	
9.85936	-1.19861	3.49341	0.298706	
9.86435	-1.24487	3.50519	0.359131	
9.86934	-1.28595	3.51434	0.418701	
9.87433	-1.32507	3.51971	0.479004	
9.87933	-1.37201	3.53723	0.546326	
9.88432	-1.42224	3.54791	0.608399	
9.88931	-1.46484	3.55914	0.667603	
9.8943	-1.51428	3.57117	0.7323	
9.89929	-1.56628	3.57715	0.794983	
9.90429	-1.61096	3.59314	0.854126	
9.90928	-1.65814	3.61102	0.913818	
9.91427	-1.70673	3.61151	0.976807	
9.91926	-1.75324	3.60706	1.03674	
9.92425	-1.79779	3.62201	1.0929	
9.92925	-1.84094	3.64447	1.14771	
9.93424	-1.89063	3.65186	1.19641	
9.93923	-1.93347	3.66229	1.24072	
9.94422	-1.96075	3.67932	1.28772	
9.94922	-1.99738	3.68207	1.33008	
9.95421	-2.03534	3.68591	1.3645	
9.9592	-2.06696	3.69513	1.40082	
9.96419	-2.09479	3.70508	1.43774	
9.96918	-2.11871	3.71686	1.47125	
9.97418	-2.14972	3.71985	1.50342	
9.97917	-2.18494	3.7251	1.53674	
9.98416	-2.22095	3.73718	1.57422	
9.98915	-2.25885	3.74677	1.61835	
9.99414	-2.30182	3.75653	1.66144	
9.99914	-2.34381	3.7655	1.71069	
10.0041	-2.38489	3.76666	1.76147	
10.0091	-2.42761	3.77441	1.80743	
10.0141	-2.47693	3.78943	1.85419	
10.0191	-2.53333	3.80658	1.90857	
10.0241	-2.57983	3.82111	1.96149	
10.0291	-2.62286	3.82623	2.00732	
10.0341	-2.67554	3.83997	2.05121	
10.0391	-2.71954	3.85388	2.09784	
10.0441	-2.76233	3.86261	2.15173	
10.0491	-2.81171	3.87677	2.19482	
10.054	-2.85547	3.88739	2.23541	
10.059	-2.90064	3.89453	2.28296	
10.064	-2.94537	3.90595	2.32861	
10.069	-2.98962	3.9137	2.36951	
10.074	-3.03375	3.91583	2.40656	
10.079	-3.07623	3.93213	2.44397	
10.084	-3.11377	3.94965	2.48639	
10.089	-3.15308	3.96491	2.5202	
10.094	-3.19135	3.97162	2.55261	
10.099	-3.22949	3.96576	2.59009	
10.104	-3.26575	3.9801	2.61682	
10.109	-3.297	3.99384	2.64319	
10.114	-3.33295	3.9953	2.67285	
10.1189	-3.37543	4.00147	2.70331	
10.1239	-3.41461	4.01636	2.73908	
10.1289	-3.44208	4.02911	2.77716	
10.1339	-3.48035	4.03619	2.80756	
10.1389	-3.53021	4.04718	2.84308	
10.1439	-3.56976	4.05389	2.87555	
10.1489	-3.60999	4.05969	2.89465	
10.1539	-3.65173	4.07642	2.92352	
10.1589	-3.68793	4.08478	2.96014	
10.1639	-3.7251	4.09393	2.99384	
10.1689	-3.76032	4.10419	3.01996	
10.1739	-3.79578	4.10626	3.04388	
10.1789	-3.83392	4.11041	3.073	
10.1838	-3.87018	4.12006	3.10107	
10.1888	-3.90753	4.13434	3.12317	
10.1938	-3.95148	4.146	3.14716	
10.1988	-3.99707	4.15857	3.1814	
10.2038	-4.03479	4.17346	3.22131	
10.2088	-4.07257	4.18207	3.2442	
10.2138	-4.12024	4.18897	3.27557	
10.2188	-4.15753	4.19922	3.30988	
10.2238	-4.2005	4.21173	3.32941	
10.2288	-4.25317	4.22101	3.35864	
10.2338	-4.29511	4.22992	3.39032	
10.2388	-4.33447	4.24658	3.41882	
10.2437	-4.37048	4.25763	3.44543	
10.2487	-4.40869	4.26093	3.46533	
10.2537	-4.4422	4.27191	3.48145	
10.2587	-4.47345	4.28479	3.5069	
10.2637	-4.50769	4.29016	3.5296	
10.2687	-4.53986	4.29059	3.54669	
10.2737	-4.573	4.29089	3.56482	
10.2787	-4.60785	4.30603	3.57935	
10.2837	-4.63977	4.31665	3.59583	
10.2887	-4.66632	4.32178	3.61298	
10.2937	-4.70032	4.33594	3.62592	
10.2987	-4.73071	4.33661	3.64819	
10.3037	-4.75751	4.34235	3.66919	
10.3086	-4.78961	4.3559	3.6795	
10.3136	-4.82257	4.35931	3.69385	
10.3186	-4.857	4.3678	3.7121	
10.3236	-4.88989	4.37659	3.73871	
10.3286	-4.92474	4.38257	3.7561	
10.3336	-4.95923	4.39447	3.76556	
10.3386	-5.00116	4.40924	3.7818	
10.3436	-5.0517	4.41443	3.80554	
10.3486	-5.08905	4.4212	3.83118	
10.3536	-5.13214	4.4389	3.85199	
10.3586	-5.18158	4.45636	3.87543	
10.3636	-5.22382	4.46948	3.89264	
10.3685	-5.26978	4.47205	3.90833	
10.3735	-5.31592	4.47864	3.93396	
10.3785	-5.36231	4.49518	3.95648	
10.3835	-5.40399	4.50537	3.97369	
10.3885	-5.43909	4.51581	3.98645	
10.3935	-5.47498	4.52008	4	
10.3985	-5.50861	4.53015	4.01569	
10.4035	-5.54242	4.53943	4.02924	
10.4085	-5.57959	4.54053	4.04273	
10.4135	-5.61194	4.54938	4.04883	
10.4185	-5.64313	4.56311	4.06397	
10.4235	-5.67932	4.57404	4.07953	
10.4285	-5.71808	4.5799	4.08551	
10.4334	-5.74835	4.58984	4.09729	
10.4384	-5.7724	4.59888	4.11224	
10.4434	-5.80798	4.60761	4.12268	
10.4484	-5.84863	4.61646	4.1366	
10.4534	-5.88275	4.62134	4.1496	
10.4584	-5.91559	4.63373	4.16083	
10.4634	-5.95313	4.64307	4.16815	
10.4684	-6.00006	4.646	4.1778	
10.4734	-6.03278	4.65271	4.19299	
10.4784	-6.06201	4.66364	4.20795	
10.4834	-6.10327	4.67645	4.22217	
10.4884	-6.14179	4.68665	4.22931	
10.4934	-6.18219	4.6994	4.24255	
10.4983	-6.2179	4.70789	4.25385	
10.5033	-6.24994	4.71448	4.26209	
10.5083	-6.28168	4.71808	4.26807	
10.5133	-6.30786	4.72717	4.27063	
10.5183	-6.33447	4.73846	4.27747	
10.5233	-6.36432	4.74481	4.28424	
10.5283	-6.39795	4.75153	4.29016	
10.5333	-6.42719	4.76062	4.29895	
10.5383	-6.44391	4.77124	4.3028	
10.5433	-6.46997	4.77472	4.31049	
10.5483	-6.50824	4.78278	4.31683	
10.5533	-6.54096	4.79077	4.32501	
10.5582	-6.57129	4.79871	4.33649	
10.5632	-6.607	4.81842	4.34106	
10.5682	-6.64142	4.82684	4.34235	
10.5732	-6.67706	4.83624	4.34619	
10.5782	-6.72022	4.84522	4.36456	
10.5832	-6.76202	4.8476	4.37494	
10.5882	-6.78882	4.86603	4.36914	
10.5932	-6.82245	4.883	4.3689	
10.5982	-6.86047	4.88684	4.37543	
10.6032	-6.888	4.89813	4.38153	
10.6082	-6.9184	4.90735	4.38751	
10.6132	-6.94208	4.91461	4.39191	
10.6182	-6.9632	4.92401	4.39282	
10.6231	-6.98682	4.93213	4.39758	
10.6281	-7.00897	4.93945	4.39941	
10.6331	-7.03815	4.94171	4.40009	
10.6381	-7.07013	4.95245	4.40631	
10.6431	-7.0918	4.96222	4.40436	
10.6481	-7.11768	4.96967	4.40326	
10.6531	-7.14764	4.97199	4.41016	
10.6581	-7.16821	4.97638	4.41711	
10.6631	-7.1933	4.98511	4.41852	
10.6681	-7.22186	4.98981	4.41205	
10.6731	-7.25183	4.99756	4.41144	
10.6781	-7.27496	5.01154	4.42242	
10.6831	-7.29297	5.01929	4.42706	
10.688	-7.32135	5.02692	4.42047	
10.693	-7.34442	5.03809	4.42682	
10.698	-7.36646	5.04877	4.43744	
10.703	-7.3916	5.05835	4.4375	
10.708	-7.41473	5.06244	4.42993	
10.713	-7.4447	5.07513	4.43115	
10.718	-7.47339	5.08185	4.43573	
10.723	-7.49316	5.07983	4.43036	
10.728	-7.51947	5.09113	4.4267	
10.733	-7.55261	5.10352	4.42871	
10.738	-7.5846	5.11725	4.44013	
10.743	-7.62024	5.13776	4.44611	
10.7479	-7.65747	5.1488	4.44019	
10.7529	-7.69306	5.1582	4.43518	
10.7579	-7.73242	5.17468	4.44128	
10.7629	-7.76721	5.19128	4.43866	
10.7679	-7.802	5.20929	4.42651	
10.7729	-7.84265	5.22479	4.42328	
10.7779	-7.87805	5.23206	4.42291	
10.7829	-7.91779	5.245	4.4176	
10.7879	-7.95355	5.26386	4.41541	
10.7929	-7.98163	5.27423	4.41992	
10.7979	-8.01471	5.28339	4.42206	
10.8029	-8.04566	5.29718	4.42017	
10.8079	-8.08203	5.31458	4.41254	
10.8128	-8.11597	5.32745	4.40949	
10.8178	-8.13947	5.34436	4.41248	
10.8228	-8.17712	5.35907	4.40521	
10.8278	-8.21771	5.37299	4.38898	
10.8328	-8.24829	5.39294	4.38947	
10.8378	-8.28363	5.40387	4.40088	
10.8428	-8.32233	5.41858	4.39307	
10.8478	-8.36249	5.43744	4.38184	
10.8528	-8.40454	5.45813	4.3775	
10.8578	-8.44019	5.48212	4.37537	
10.8628	-8.47553	5.49634	4.36108	
10.8678	-8.51093	5.51361	4.34766	
10.8727	-8.54718	5.5329	4.3465	
10.8777	-8.58801	5.54883	4.34857	
10.8827	-8.6189	5.56818	4.33795	
10.8877	-8.64819	5.58051	4.32178	
10.8927	-8.68054	5.59607	4.31561	
10.8977	-8.71271	5.61334	4.31616	
10.9027	-8.74872	5.6333	4.31293	
10.9077	-8.77741	5.65418	4.29779	
10.9127	-8.80444	5.67322	4.28748	
10.9177	-8.83875	5.69843	4.28418	
10.9227	-8.8692	5.71784	4.2782	
10.9277	-8.90357	5.73254	4.26691	
10.9327	-8.94165	5.75116	4.25842	
10.9376	-8.97662	5.77747	4.25409	
10.9426	-9.01148	5.79956	4.24695	
10.9476	-9.05023	5.81085	4.22589	
10.9526	-9.09204	5.8363	4.20856	
10.9576	-9.13092	5.87232	4.20746	
10.9626	-9.16773	5.89649	4.19714	
10.9676	-9.20563	5.92053	4.17468	
10.9726	-9.24011	5.94757	4.16345	
10.9776	-9.2738	5.97211	4.15784	
10.9826	-9.32056	5.99347	4.13983	
10.9876	-9.37171	6.0188	4.11285	
10.9926	-9.40894	6.05481	4.10303	
10.9976	-9.43988	6.091	4.09888	
11.0025	-9.47778	6.11688	4.08423	
11.0075	-9.51807	6.14124	4.06647	
11.0125	-9.55353	6.17078	4.04858	
11.0175	-9.58679	6.20178	4.04022	
11.0225	-9.62152	6.23212	4.02106	
11.0275	-9.66547	6.25873	3.99451	
11.0325	-9.70642	6.29102	3.98468	
11.0375	-9.73425	6.32935	3.97894	
11.0425	-9.77405	6.36401	3.95978	
11.0475	-9.81751	6.38995	3.92755	
11.0525	-9.85162	6.42597	3.90924	
11.0575	-9.89099	6.46527	3.90601	
11.0624	-9.92651	6.49756	3.89307	
11.0674	-9.95722	6.52564	3.86823	
11.0724	-9.99207	6.56079	3.85034	
11.0774	-10.0249	6.60016	3.84161	
11.0824	-10.0588	6.63184	3.82715	
11.0874	-10.0897	6.66046	3.80139	
11.0924	-10.1249	6.69434	3.78375	
11.0974	-10.165	6.73541	3.77924	
11.1024	-10.2	6.77551	3.75971	
11.1074	-10.2308	6.81183	3.72229	
11.1124	-10.2636	6.85199	3.69312	
11.1174	-10.2987	6.90051	3.6936	
11.1224	-10.334	6.93897	3.68378	
11.1273	-10.3719	6.97485	3.63916	
11.1323	-10.4133	7.01953	3.60571	
11.1373	-10.454	7.08069	3.5943	
11.1423	-10.497	7.13458	3.5769	
11.1473	-10.541	7.17828	3.53986	
11.1523	-10.5803	7.23486	3.50061	
11.1573	-10.6216	7.29321	3.49231	
11.1623	-10.6639	7.34851	3.47199	
11.1673	-10.7061	7.40546	3.42432	
11.1723	-10.7416	7.46246	3.39752	
11.1773	-10.7795	7.52576	3.3844	
11.1823	-10.8254	7.58441	3.36572	
11.1873	-10.8632	7.62854	3.32874	
11.1922	-10.8965	7.68298	3.30115	
11.1972	-10.9288	7.74463	3.29297	
11.2022	-10.9612	7.7992	3.27063	
11.2072	-10.9937	7.84479	3.22913	
11.2122	-11.0236	7.90057	3.20197	
11.2172	-11.052	7.9646	3.19769	
11.2222	-11.0822	8.00897	3.17853	
11.2272	-11.1132	8.04743	3.13385	
11.2322	-11.1389	8.10162	3.10382	
11.2372	-11.1656	8.15796	3.11115	
11.2422	-11.1981	8.21167	3.09668	
11.2472	-11.2314	8.25513	3.05121	
11.2521	-11.2517	8.29584	3.02844	
11.2571	-11.2663	8.35883	3.02911	
11.2621	-11.2933	8.41199	3.01117	
11.2671	-11.3328	8.45191	2.96875	
11.2721	-11.3615	8.50543	2.9458	
11.2771	-11.3779	8.58252	2.95001	
11.2821	-11.4131	8.65442	2.92554	
11.2871	-11.4524	8.71137	2.87329	
11.2921	-11.4819	8.7865	2.84137	
11.2971	-11.5175	8.87274	2.83344	
11.3021	-11.5538	8.95606	2.80676	
11.3071	-11.5895	9.03723	2.74939	
11.3121	-11.6322	9.12958	2.71411	
11.317	-11.6695	9.23663	2.71124	
11.322	-11.7086	9.34125	2.68628	
11.327	-11.7604	9.43085	2.61798	
11.332	-11.7999	9.52765	2.57477	
11.337	-11.8273	9.65064	2.57617	
11.342	-11.8635	9.76593	2.55078	
11.347	-11.914	9.85925	2.4809	
11.352	-11.9597	9.96546	2.43573	
11.357	-11.9874	10.09	2.43921	
11.362	-12.0213	10.2001	2.41541	
11.367	-12.0654	10.2905	2.34967	
11.372	-12.1046	10.3944	2.30383	
11.377	-12.1293	10.5141	2.30634	
11.3819	-12.1567	10.6259	2.29297	
11.3869	-12.1973	10.7105	2.22607	
11.3919	-12.2326	10.8004	2.18341	
11.3969	-12.2553	10.918	2.19183	
11.4019	-12.2806	11.0217	2.17407	
11.4069	-12.3173	11.1057	2.10614	
11.4119	-12.3452	11.2002	2.0683	
11.4169	-12.3626	11.3127	2.08459	
11.4219	-12.3877	11.4095	2.07117	
11.4269	-12.4221	11.487	2.00415	
11.4319	-12.4558	11.5788	1.96967	
11.4369	-12.4769	11.6954	1.98529	
11.4418	-12.4927	11.8124	1.97583	
11.4468	-12.528	11.9114	1.90369	
11.4518	-12.5663	12.0288	1.84851	
11.4568	-12.5966	12.1796	1.85669	
11.4618	-12.6288	12.3188	1.84808	
11.4668	-12.6709	12.4312	1.77509	
11.4718	-12.7108	12.5649	1.72345	
11.4768	-12.7333	12.7212	1.7337	
11.4818	-12.7596	12.8505	1.72284	
11.4868	-12.7911	12.9615	1.65332	
11.4918	-12.8264	13.079	1.61249	
11.4968	-12.853	13.2192	1.63324	
11.5018	-12.873	13.3546	1.62183	
11.5067	-12.9124	13.4487	1.54596	
11.5117	-12.94	13.5497	1.50305	
11.5167	-12.9533	13.6913	1.53705	
11.5217	-12.9799	13.8114	1.53943	
11.5267	-13.013	13.8923	1.46198	
11.5317	-13.0425	13.9943	1.4137	
11.5367	-13.0566	14.1253	1.44489	
11.5417	-13.0737	14.2476	1.44342	
11.5467	-13.1091	14.3418	1.36877	
11.5517	-13.1392	14.4481	1.31775	
11.5567	-13.1523	14.604	1.34802	
11.5617	-13.1744	14.7574	1.34717	
11.5666	-13.2158	14.8758	1.25531	
11.5716	-13.2512	15.0181	1.20001	
11.5766	-13.2774	15.212	1.23523	
11.5816	-13.3143	15.3978	1.23401	
11.5866	-13.3574	15.5576	1.13812	
11.5916	-13.4033	15.7368	1.07837	
11.5966	-13.4263	15.96	1.11206	
11.6016	-13.4555	16.1774	1.09454	
11.6066	-13.5177	16.3578	0.985596	
11.6116	-13.5622	16.5676	0.932922	
11.6166	-13.5882	16.8218	0.967224	
11.6216	-13.6313	17.0659	0.95459	
11.6266	-13.6919	17.2875	0.851746	
11.6315	-13.7432	17.5266	0.779236	
11.6365	-13.7744	17.8067	0.806946	
11.6415	-13.8156	18.0754	0.802307	
11.6465	-13.8812	18.3051	0.683289	
11.6515	-13.9317	18.5628	0.613037	
11.6565	-13.9555	18.8633	0.651306	
11.6615	-14.0021	19.148	0.643128	
11.6665	-14.0738	19.3923	0.519165	
11.6715	-14.1265	19.6609	0.437744	
11.6765	-14.1595	19.9923	0.482666	
11.6815	-14.2075	20.3151	0.480408	
11.6865	-14.2771	20.5911	0.344666	
11.6915	-14.3361	20.9027	0.256653	
11.6964	-14.3844	21.2851	0.303589	
11.7014	-14.4427	21.6537	0.293701	
11.7064	-14.5182	21.9717	0.144348	
11.7114	-14.5886	22.3195	0.0547485	
11.7164	-14.6387	22.7361	0.104797	
11.7214	-14.6931	23.1357	0.0979004	
11.7264	-14.7741	23.4814	-0.0507202	
11.7314	-14.8469	23.8541	-0.1474	
11.7364	-14.8882	24.291	-0.0910645	
11.7414	-14.95	24.7205	-0.0860596	
11.7464	-15.0446	25.1109	-0.252502	
11.7514	-15.1249	25.5388	-0.362793	
11.7563	-15.1868	26.0361	-0.31012	
11.7613	-15.2593	26.5259	-0.32251	
11.7663	-15.3569	26.9663	-0.488281	
11.7713	-15.4477	27.4499	-0.601746	
11.7763	-15.5087	28.0241	-0.549561	
11.7813	-15.5829	28.5995	-0.550659	
11.7863	-15.7051	29.119	-0.739807	
11.7913	-15.8161	29.6545	-0.869507	
11.7963	-15.8834	30.2841	-0.808411	
11.8013	-15.9661	30.9051	-0.811157	
11.8063	-16.0873	31.4459	-1.00848	
11.8113	-16.1982	32.0222	-1.14575	
11.8163	-16.2719	32.6821	-1.08142	
11.8212	-16.3691	33.3239	-1.07568	
11.8262	-16.5045	33.9078	-1.28967	
11.8312	-16.6194	34.5274	-1.43237	
11.8362	-16.7044	35.2388	-1.34937	
11.8412	-16.8009	35.9236	-1.3421	
11.8462	-16.9236	36.5152	-1.5592	
11.8512	-17.0458	37.1539	-1.7066	
11.8562	-17.1415	37.8983	-1.62805	
11.8612	-17.2491	38.6213	-1.62439	
11.8662	-17.3947	39.2794	-1.86072	
11.8712	-17.5349	40.0198	-2.02582	
11.8762	-17.6425	40.9022	-1.94122	
11.8812	-17.7704	41.7887	-1.9389	
11.8861	-17.956	42.6337	-2.21436	
11.8911	-18.1307	43.5614	-2.4082	
11.8961	-18.2698	44.6314	-2.32086	
11.9011	-18.4306	45.7162	-2.32953	
11.9061	-18.6503	46.7382	-2.63098	
11.9111	-18.8611	47.8322	-2.8476	
11.9161	-19.0234	49.0657	-2.76532	
11.9211	-19.2157	50.2852	-2.77411	
11.9261	-19.4598	51.4054	-3.09656	
11.9311	-19.6853	52.573	-3.32623	
11.9361	-19.8676	53.8583	-3.23261	
11.9411	-20.0738	55.1259	-3.24921	
11.946	-20.3391	56.2991	-3.60938	
11.951	-20.5867	57.5298	-3.85742	
11.956	-20.7756	58.897	-3.74933	
11.961	-20.9936	60.2332	-3.74933	
11.966	-21.275	61.467	-4.11627	
11.971	-21.5376	62.7528	-4.37598	
11.976	-21.7452	64.1668	-4.26263	
11.981	-21.9778	65.5515	-4.26874	
11.986	-22.2722	66.8246	-4.66303	
11.991	-22.5507	68.136	-4.92938	
11.996	-22.768	69.5706	-4.78742	
12.001	-23.0012	70.9573	-4.7699	
12.006	-23.3013	72.2045	-5.17047	
12.0109	-23.575	73.4909	-5.43353	
12.0159	-23.7899	74.906	-5.25397	
12.0209	-24.0333	76.3049	-5.22492	
12.0259	-24.3527	77.6407	-5.65674	
12.0309	-24.6755	79.086	-5.95294	
12.0359	-24.9496	80.7302	-5.81195	
12.0409	-25.2585	82.4086	-5.81714	
12.0459	-25.6551	84.0274	-6.28436	
12.0509	-26.0416	85.7608	-6.60736	
12.0559	-26.3763	87.6783	-6.45551	
12.0609	-26.7542	89.5898	-6.45636	
12.0659	-27.1995	91.3894	-6.94971	
12.0708	-27.6287	93.2484	-7.29022	
12.0758	-27.9991	95.277	-7.12354	
12.0808	-28.4034	97.3012	-7.12372	
12.0858	-28.9014	99.2548	-7.65729	
12.0908	-29.3988	101.342	-8.0235	
12.0958	-29.8397	103.627	-7.85156	
12.1008	-30.3226	105.905	-7.86664	
12.1058	-30.8846	108.056	-8.43921	
12.1108	-31.4269	110.24	-8.82654	
12.1158	-31.8926	112.525	-8.6214	
12.1208	-32.3753	114.705	-8.58673	
12.1258	-32.9254	116.69	-9.14563	
12.1308	-33.4434	118.669	-9.50543	
12.1357	-33.8905	120.739	-9.26038	
12.1407	-34.3527	122.734	-9.20703	
12.1457	-34.8852	124.592	-9.78058	
12.1507	-35.4006	126.499	-10.1555	
12.1557	-35.8559	128.558	-9.88172	
12.1607	-36.3409	130.609	-9.8056	
12.1657	-36.9171	132.567	-10.3805	
12.1707	-37.4987	134.612	-10.7619	
12.1757	-38.0189	136.832	-10.4755	
12.1807	-38.5689	139.039	-10.3915	
12.1857	-39.1992	141.122	-10.9882	
12.1907	-39.8347	143.263	-11.38	
12.1957	-40.4148	145.562	-11.0647	
12.2006	-41.0061	147.837	-10.9514	
12.2056	-41.6799	149.979	-11.5646	
12.2106	-42.3612	152.156	-11.9644	
12.2156	-42.9686	154.483	-11.6241	
12.2206	-43.593	156.749	-11.5131	
12.2256	-44.3038	158.837	-12.148	
12.2306	-44.9891	160.951	-12.5441	
12.2356	-45.5993	163.18	-12.1784	
12.2406	-46.2345	165.36	-12.0412	
12.2456	-46.9465	167.402	-12.6695	
12.2506	-47.655	169.487	-13.0656	
12.2556	-48.3067	171.715	-12.6816	
12.2605	-48.9802	173.902	-12.5308	
12.2655	-49.7347	175.96	-13.1712	
12.2705	-50.4827	178.066	-13.5586	
12.2755	-51.1688	180.305	-13.1256	
12.2805	-51.8767	182.49	-12.916	
12.2855	-52.6549	184.525	-13.5314	
12.2905	-53.4302	186.604	-13.9156	
12.2955	-54.1602	188.84	-13.4539	
12.3005	-54.9202	191.066	-13.2513	
12.3055	-55.7532	193.175	-13.8964	
12.3105	-56.5891	195.338	-14.2734	
12.3155	-57.3876	197.653	-13.7905	
12.3205	-58.212	199.929	-13.5509	
12.3254	-59.0898	202.049	-14.1743	
12.3304	-59.971	204.195	-14.5448	
12.3354	-60.8084	206.475	-14.0263	
12.3404	-61.6495	208.704	-13.7625	
12.3454	-62.5354	210.776	-14.396	
12.3504	-63.4251	212.848	-14.7571	
12.3554	-64.2774	215.047	-14.2001	
12.3604	-65.1404	217.218	-13.8989	
12.3654	-66.0687	219.267	-14.5095	
12.3704	-67.0103	221.368	-14.8538	
12.3754	-67.9251	223.605	-14.273	
12.3804	-68.8452	225.806	-13.955	
12.3854	-69.8032	227.858	-14.5648	
12.3903	-70.7812	229.938	-14.8964	
12.3953	-71.757	232.185	-14.2809	
12.4003	-72.7549	234.45	-13.9384	
12.4053	-73.8028	236.609	-14.5524	
12.4103	-74.8836	238.808	-14.9224	
12.4153	-75.9436	241.129	-14.3322	
12.4203	-76.9887	243.393	-13.9813	
12.4253	-78.06	245.493	-14.5781	
12.4303	-79.1393	247.592	-14.8972	
12.4353	-80.208	249.805	-14.2579	
12.4403	-81.2624	251.965	-13.8809	
12.4453	-82.3269	253.958	-14.4478	
12.4502	-83.4168	255.966	-14.7465	
12.4552	-84.5131	258.111	-14.0759	
12.4602	-85.5894	260.212	-13.6784	
12.4652	-86.6496	262.142	-14.2626	
12.4702	-87.7314	264.066	-14.5588	
12.4752	-88.8156	266.074	-13.8622	
12.4802	-89.8593	268.025	-13.4519	
12.4852	-90.8821	269.814	-14.0343	
12.4902	-91.9348	271.596	-14.3365	
12.4952	-92.9996	273.511	-13.6304	
12.5002	-94.0455	275.396	-13.1899	
12.5052	-95.0994	277.145	-13.7481	
12.5102	-96.2207	278.953	-14.0272	
12.5151	-97.4035	280.944	-13.3175	
12.5201	-98.5834	282.945	-12.8845	
12.5251	-99.7598	284.83	-13.4457	
12.5301	-101.005	286.793	-13.7383	
12.5351	-102.352	288.989	-13.0231	
12.5401	-103.74	291.259	-12.5731	
12.5451	-105.161	293.483	-13.1348	
12.5501	-106.714	295.841	-13.4175	
12.5551	-108.401	298.427	-12.6593	
12.5601	-110.091	301.031	-12.1475	
12.5651	-111.738	303.497	-12.6391	
12.5701	-113.444	305.961	-12.8961	
12.575	-115.244	308.564	-12.1729	
12.58	-117.012	311.144	-11.6964	
12.585	-118.704	313.546	-12.2072	
12.59	-120.447	315.926	-12.437	
12.595	-122.283	318.414	-11.6457	
12.6	-124.047	320.85	-11.1047	
12.605	-125.705	323.095	-11.5751	
12.61	-127.408	325.313	-11.8112	
12.615	-129.181	327.621	-11.0248	
12.62	-130.866	329.839	-10.4803	
12.625	-132.391	331.823	-10.9528	
12.63	-133.921	333.729	-11.1726	
12.635	-135.524	335.709	-10.3975	
12.6399	-137.024	337.619	-9.87329	
12.6449	-138.394	339.351	-10.3477	
12.6499	-139.825	341.084	-10.5872	
12.6549	-141.398	342.968	-9.81305	
12.6599	-142.919	344.829	-9.25055	
12.6649	-144.302	346.504	-9.69891	
12.6699	-145.757	348.186	-9.91412	
12.6749	-147.348	350.03	-9.12268	
12.6799	-148.893	351.875	-8.5752	
12.6849	-150.351	353.6	-9.01129	
12.6899	-151.96	355.38	-9.22156	
12.6949	-153.778	357.378	-8.45831	
12.6999	-155.549	359.423	-7.89642	
12.7048	-157.202	361.318	-8.30512	
12.7098	-158.97	363.219	-8.49988	
12.7148	-160.919	365.288	-7.7143	
12.7198	-162.78	367.306	-7.13098	
12.7248	-164.44	369.106	-7.49219	
12.7298	-166.131	370.858	-7.6499	
12.7348	-167.938	372.706	-6.87427	
12.7398	-169.596	374.493	-6.30725	
12.7448	-171.04	376.055	-6.68848	
12.7498	-172.577	377.579	-6.87225	
12.7548	-174.272	379.263	-6.09857	
12.7598	-175.835	380.947	-5.55414	
12.7647	-177.215	382.443	-6.01178	
12.7697	-178.715	383.941	-6.28656	
12.7747	-180.417	385.641	-5.61182	
12.7797	-182.033	387.327	-5.11292	
12.7847	-183.443	388.79	-5.52374	
12.7897	-184.929	390.213	-5.7309	
12.7947	-186.619	391.798	-5.01672	
12.7997	-188.181	393.38	-4.48596	
12.8047	-189.545	394.802	-4.89478	
12.8097	-191.056	396.277	-5.13873	
12.8147	-192.809	397.964	-4.4624	
12.8197	-194.499	399.665	-3.94885	
12.8247	-195.974	401.185	-4.31519	
12.8296	-197.537	402.682	-4.51294	
12.8346	-199.318	404.343	-3.81928	
12.8396	-200.974	405.968	-3.31494	
12.8446	-202.356	407.354	-3.71454	
12.8496	-203.779	408.677	-3.93884	
12.8546	-205.364	410.128	-3.28229	
12.8596	-206.788	411.516	-2.78436	
12.8646	-207.925	412.639	-3.17053	
12.8696	-209.109	413.701	-3.41718	
12.8746	-210.477	414.91	-2.78479	
12.8796	-211.691	416.094	-2.26923	
12.8846	-212.647	417.066	-2.64313	
12.8896	-213.693	418.009	-2.90521	
12.8945	-214.945	419.122	-2.2981	
12.8995	-216.082	420.228	-1.82336	
12.9045	-216.988	421.122	-2.20972	
12.9095	-218.008	421.99	-2.49829	
12.9145	-219.268	423.052	-1.93134	
12.9195	-220.385	424.124	-1.45575	
12.9245	-221.25	424.977	-1.83276	
12.9295	-222.237	425.804	-2.10797	
12.9345	-223.457	426.827	-1.55371	
12.9395	-224.559	427.889	-1.09283	
12.9445	-225.438	428.784	-1.44635	
12.9495	-226.469	429.667	-1.71552	
12.9544	-227.761	430.757	-1.16626	
12.9594	-228.944	431.878	-0.693726	
12.9644	-229.898	432.814	-1.04028	
12.9694	-230.985	433.736	-1.30579	
12.9744	-232.312	434.85	-0.744385	
12.9794	-233.507	435.971	-0.255676	
12.9844	-234.433	436.856	-0.573731	
12.9894	-235.438	437.685	-0.82959	
12.9944	-236.649	438.708	-0.290161	
12.9994	-237.718	439.715	0.18396	
13.0044	-238.502	440.457	-0.152832	
13.0094	-239.343	441.128	-0.426209	
13.0144	-240.354	441.961	0.103821	
13.0193	-241.19	442.774	0.556763	
13.0243	-241.742	443.327	0.216431	
13.0293	-242.371	443.838	-0.0744629	
13.0343	-243.231	444.545	0.399963	
13.0393	-243.964	445.255	0.82605	
13.0443	-244.434	445.74	0.470581	
13.0493	-245.008	446.196	0.142456	
13.0543	-245.815	446.865	0.588135	
13.0593	-246.498	447.558	1.00415	
13.0643	-246.931	448.022	0.663757	
13.0693	-247.48	448.438	0.338867	
13.0743	-248.286	449.083	0.758423	
13.0792	-249.005	449.797	1.18018	
13.0842	-249.507	450.309	0.846008	
13.0892	-250.147	450.806	0.511047	
13.0942	-251.063	451.556	0.92688	
13.0992	-251.906	452.347	1.36176	
13.1042	-252.528	452.935	1.07758	
13.1092	-253.258	453.517	0.769043	
13.1142	-254.239	454.32	1.19067	
13.1192	-255.139	455.158	1.6369	
13.1242	-255.811	455.797	1.34821	
13.1292	-256.582	456.408	1.03619	
13.1342	-257.601	457.244	1.45056	
13.1392	-258.531	458.121	1.89191	
13.1441	-259.227	458.784	1.63428	
13.1491	-260.026	459.393	1.35242	
13.1541	-261.066	460.216	1.76843	
13.1591	-261.999	461.067	2.22968	
13.1641	-262.651	461.684	1.96942	
13.1691	-263.372	462.256	1.65222	
13.1741	-264.337	463.031	2.04968	
13.1791	-265.181	463.815	2.50116	
13.1841	-265.772	464.366	2.24994	
13.1891	-266.451	464.894	1.92755	
13.1941	-267.352	465.644	2.28125	
13.1991	-268.163	466.431	2.70251	
13.2041	-268.743	467.009	2.43842	
13.209	-269.429	467.563	2.09509	
13.214	-270.354	468.349	2.43915	
13.219	-271.193	469.168	2.8584	
13.224	-271.82	469.763	2.60895	
13.229	-272.534	470.326	2.2854	
13.234	-273.477	471.11	2.62158	
13.239	-274.336	471.914	3.04724	
13.244	-274.955	472.479	2.82843	
13.249	-275.647	473.004	2.50989	
13.254	-276.541	473.727	2.84454	
13.259	-277.322	474.454	3.27557	
13.264	-277.836	474.922	3.05017	
13.2689	-278.393	475.326	2.73291	
13.2739	-279.144	475.945	3.05328	
13.2789	-279.78	476.575	3.49432	
13.2839	-280.194	476.937	3.27502	
13.2889	-280.672	477.237	2.92102	
13.2939	-281.334	477.779	3.22736	
13.2989	-281.907	478.365	3.64911	
13.3039	-282.247	478.699	3.42139	
13.3089	-282.661	478.976	3.08472	
13.3139	-283.295	479.464	3.38086	
13.3189	-283.845	479.998	3.78143	
13.3239	-284.165	480.273	3.55536	
13.3289	-284.544	480.505	3.2074	
13.3338	-285.139	480.998	3.48499	
13.3388	-285.67	481.531	3.88379	
13.3438	-285.991	481.815	3.65186	
13.3488	-286.384	482.06	3.28687	
13.3538	-287.004	482.559	3.54236	
13.3588	-287.575	483.122	3.94696	
13.3638	-287.945	483.466	3.75659	
13.3688	-288.405	483.778	3.41931	
13.3738	-289.137	484.343	3.67011	
13.3788	-289.822	484.97	4.07489	
13.3838	-290.283	485.39	3.87946	
13.3888	-290.821	485.771	3.55225	
13.3938	-291.62	486.36	3.82141	
13.3987	-292.353	486.972	4.23773	
13.4037	-292.816	487.354	4.06885	
13.4087	-293.321	487.7	3.732	
13.4137	-294.022	488.282	3.99597	
13.4187	-294.658	488.89	4.41547	
13.4237	-295.065	489.258	4.22607	
13.4287	-295.522	489.591	3.87695	
13.4337	-296.194	490.162	4.12317	
13.4387	-296.813	490.779	4.53088	
13.4437	-297.225	491.151	4.36243	
13.4487	-297.684	491.473	4.02588	
13.4537	-298.36	492.041	4.27686	
13.4586	-298.994	492.642	4.71106	
13.4636	-299.422	492.984	4.55859	
13.4686	-299.898	493.268	4.23309	
13.4736	-300.56	493.794	4.48846	
13.4786	-301.155	494.387	4.91461	
13.4836	-301.535	494.75	4.75043	
13.4886	-301.953	495.076	4.39832	
13.4936	-302.585	495.651	4.63062	
13.4986	-303.168	496.263	5.04059	
13.5036	-303.533	496.612	4.86597	
13.5086	-303.934	496.891	4.51007	
13.5136	-304.519	497.41	4.73547	
13.5186	-305.039	497.966	5.13306	
13.5235	-305.344	498.25	4.95612	
13.5285	-305.678	498.46	4.59522	
13.5335	-306.195	498.91	4.80872	
13.5385	-306.643	499.398	5.21845	
13.5435	-306.873	499.622	5.04895	
13.5485	-307.141	499.788	4.69202	
13.5535	-307.611	500.169	4.91071	
13.5585	-308.028	500.588	5.32684	
13.5635	-308.212	500.774	5.16724	
13.5685	-308.421	500.912	4.80676	
13.5735	-308.849	501.287	5.02411	
13.5785	-309.268	501.704	5.44989	
13.5834	-309.49	501.879	5.3103	
13.5884	-309.729	501.99	4.96613	
13.5934	-310.17	502.345	5.18292	
13.5984	-310.578	502.768	5.58954	
13.6034	-310.765	502.959	5.41834	
13.6084	-310.995	503.095	5.04541	
13.6134	-311.452	503.485	5.24585	
13.6184	-311.865	503.956	5.64478	
13.6234	-312.061	504.192	5.46899	
13.6284	-312.318	504.376	5.09186	
13.6334	-312.796	504.81	5.28711	
13.6384	-313.223	505.297	5.68237	
13.6434	-313.455	505.531	5.50732	
13.6483	-313.734	505.713	5.13593	
13.6533	-314.216	506.134	5.34802	
13.6583	-314.671	506.608	5.77106	
13.6633	-314.915	506.842	5.61188	
13.6683	-315.18	506.994	5.24677	
13.6733	-315.633	507.378	5.45544	
13.6783	-316.038	507.815	5.86591	
13.6833	-316.22	507.99	5.69751	
13.6883	-316.416	508.088	5.31653	
13.6933	-316.793	508.415	5.51813	
13.6983	-317.107	508.81	5.91919	
13.7033	-317.215	508.943	5.73877	
13.7083	-317.349	509.018	5.35309	
13.7132	-317.674	509.341	5.53308	
13.7182	-317.971	509.707	5.92743	
13.7232	-318.062	509.819	5.75488	
13.7282	-318.186	509.874	5.36658	
13.7332	-318.51	510.18	5.55859	
13.7382	-318.806	510.527	5.9726	
13.7432	-318.897	510.629	5.81549	
13.7482	-319.033	510.679	5.44147	
13.7532	-319.392	510.98	5.62854	
13.7582	-319.725	511.343	6.03821	
13.7632	-319.867	511.463	5.88367	
13.7682	-320.051	511.54	5.51276	
13.7731	-320.429	511.873	5.70929	
13.7781	-320.764	512.256	6.12347	
13.7831	-320.896	512.383	5.95715	
13.7881	-321.059	512.453	5.56488	
13.7931	-321.432	512.778	5.75134	
13.7981	-321.764	513.173	6.15564	
13.8031	-321.899	513.308	6.00256	
13.8081	-322.085	513.382	5.63532	
13.8131	-322.485	513.706	5.83283	
13.8181	-322.848	514.094	6.25867	
13.8231	-322.99	514.245	6.11749	
13.8281	-323.17	514.318	5.74237	
13.8331	-323.551	514.631	5.92627	
13.838	-323.89	515.018	6.33917	
13.843	-324.002	515.179	6.17792	
13.848	-324.141	515.275	5.78516	
13.853	-324.485	515.604	5.97449	
13.858	-324.796	515.979	6.39484	
13.863	-324.906	516.083	6.23834	
13.868	-325.038	516.134	5.84564	
13.873	-325.364	516.446	6.02161	
13.878	-325.661	516.816	6.42023	
13.883	-325.753	516.951	6.24146	
13.888	-325.877	516.995	5.83447	
13.893	-326.21	517.29	5.99396	
13.898	-326.522	517.658	6.38422	
13.9029	-326.632	517.769	6.21271	
13.9079	-326.745	517.818	5.81805	
13.9129	-327.052	518.111	5.99085	
13.9179	-327.356	518.484	6.37958	
13.9229	-327.476	518.599	6.20343	
13.9279	-327.626	518.654	5.80664	
13.9329	-327.991	518.945	5.96411	
13.9379	-328.342	519.289	6.33753	
13.9429	-328.455	519.397	6.16242	
13.9479	-328.577	519.448	5.7627	
13.9529	-328.898	519.744	5.92938	
13.9579	-329.203	520.098	6.33893	
13.9628	-329.322	520.187	6.18298	
13.9678	-329.46	520.183	5.79108	
13.9728	-329.792	520.428	5.9566	
13.9778	-330.075	520.751	6.35931	
13.9828	-330.141	520.819	6.18024	
13.9878	-330.23	520.804	5.7572	
13.9928	-330.525	521.041	5.92285	
13.9978	-330.788	521.355	6.32843	
14.0028	-330.836	521.43	6.17633	
14.0078	-330.924	521.43	5.8009	
14.0128	-331.236	521.675	5.98108	
14.0178	-331.527	521.99	6.39185	
14.0228	-331.631	522.044	6.24085	
14.0277	-331.773	522.023	5.84509	
14.0327	-332.117	522.246	6.00684	
14.0377	-332.405	522.55	6.41443	
14.0427	-332.468	522.619	6.26813	
14.0477	-332.561	522.609	5.86963	
14.0527	-332.851	522.848	6.02655	
14.0577	-333.103	523.18	6.42194	
14.0627	-333.145	523.273	6.25403	
14.0677	-333.223	523.281	5.86188	
14.0727	-333.524	523.54	6.02564	
14.0777	-333.809	523.881	6.4234	
14.0827	-333.891	523.974	6.26502	
14.0876	-334.013	523.991	5.8916	
14.0926	-334.364	524.237	6.10272	
14.0976	-334.693	524.545	6.54212	
14.1026	-334.793	524.619	6.41473	
14.1076	-334.901	524.639	6.04724	
14.1126	-335.204	524.913	6.2085	
14.1176	-335.468	525.258	6.60327	
14.1226	-335.53	525.359	6.45648	
14.1276	-335.611	525.383	6.07013	
14.1326	-335.898	525.64	6.2403	
14.1376	-336.154	525.966	6.64526	
14.1426	-336.173	526.037	6.49378	
14.1476	-336.216	526.032	6.10303	
14.1525	-336.465	526.249	6.25592	
14.1575	-336.67	526.531	6.63733	
14.1625	-336.666	526.578	6.46875	
14.1675	-336.682	526.53	6.06409	
14.1725	-336.904	526.724	6.21777	
14.1775	-337.096	527.003	6.60803	
14.1825	-337.079	527.017	6.42999	
14.1875	-337.083	526.95	6.02301	
14.1925	-337.295	527.133	6.17712	
14.1975	-337.501	527.391	6.56793	
14.2025	-337.498	527.414	6.40247	
14.2075	-337.507	527.361	6.0011	
14.2125	-337.72	527.553	6.17108	
14.2174	-337.918	527.82	6.56323	
14.2224	-337.92	527.846	6.39472	
14.2274	-337.956	527.795	6.01251	
14.2324	-338.2	527.983	6.20044	
14.2374	-338.407	528.265	6.6026	
14.2424	-338.409	528.325	6.43054	
14.2474	-338.442	528.305	6.03626	
14.2524	-338.686	528.526	6.20514	
14.2574	-338.911	528.829	6.60822	
14.2624	-338.95	528.873	6.46014	
14.2674	-339.028	528.812	6.09045	
14.2724	-339.297	529.016	6.27301	
14.2773	-339.524	529.322	6.67059	
14.2823	-339.538	529.386	6.50391	
14.2873	-339.586	529.357	6.12689	
14.2923	-339.841	529.545	6.29791	
14.2973	-340.033	529.819	6.67633	
14.3023	-340.007	529.854	6.51013	
14.3073	-340.013	529.787	6.107	
14.3123	-340.216	529.953	6.26227	
14.3173	-340.393	530.215	6.66003	
14.3223	-340.375	530.234	6.49994	
14.3273	-340.386	530.169	6.12061	
14.3323	-340.591	530.342	6.30481	
14.3373	-340.784	530.586	6.71845	
14.3422	-340.779	530.589	6.57935	
14.3472	-340.789	530.503	6.19873	
14.3522	-341.021	530.652	6.35394	
14.3572	-341.249	530.87	6.74054	
14.3622	-341.246	530.87	6.58392	
14.3672	-341.262	530.805	6.20709	
14.3722	-341.487	530.971	6.38574	
14.3772	-341.666	531.223	6.7782	
14.3822	-341.623	531.242	6.60046	
14.3872	-341.606	531.182	6.19806	
14.3922	-341.795	531.367	6.3515	
14.3972	-341.942	531.638	6.72669	
14.4022	-341.909	531.656	6.57758	
14.4071	-341.938	531.585	6.23151	
14.4121	-342.185	531.743	6.42194	
14.4171	-342.403	531.977	6.84125	
14.4221	-342.412	531.98	6.72229	
14.4271	-342.439	531.905	6.36585	
14.4321	-342.647	532.086	6.51556	
14.4371	-342.781	532.393	6.84992	
14.4421	-342.698	532.468	6.63831	
14.4471	-342.69	532.428	6.23456	
14.4521	-342.91	532.585	6.40277	
14.4571	-343.093	532.833	6.79254	
14.4621	-343.069	532.855	6.62164	
14.467	-343.08	532.792	6.22461	
14.472	-343.297	532.96	6.35968	
14.477	-343.493	533.211	6.68732	
14.482	-343.485	533.254	6.49414	
14.487	-343.499	533.2	6.11243	
14.492	-343.721	533.368	6.27289	
14.497	-343.921	533.631	6.63611	
14.502	-343.906	533.679	6.44818	
14.507	-343.931	533.606	6.06787	
14.512	-344.168	533.74	6.23755	
14.517	-344.356	534.003	6.59094	
14.522	-344.343	534.049	6.38873	
14.527	-344.359	533.998	5.99805	
14.5319	-344.575	534.161	6.16699	
14.5369	-344.775	534.397	6.54108	
14.5419	-344.763	534.41	6.35931	
14.5469	-344.754	534.345	5.95697	
14.5519	-344.929	534.514	6.09357	
14.5569	-345.074	534.786	6.44244	
14.5619	-345.033	534.824	6.27545	
14.5669	-345.046	534.744	5.93012	
14.5719	-345.277	534.875	6.12116	
14.5769	-345.488	535.086	6.50629	
14.5819	-345.495	535.08	6.3374	
14.5869	-345.513	534.986	5.95691	
14.5918	-345.724	535.113	6.11011	
14.5968	-345.885	535.357	6.45892	
14.6018	-345.824	535.397	6.29773	
14.6068	-345.803	535.342	5.95459	
14.6118	-346	535.489	6.13324	
14.6168	-346.162	535.728	6.48792	
14.6218	-346.121	535.758	6.323	
14.6268	-346.107	535.683	5.97522	
14.6318	-346.315	535.811	6.15167	
14.6368	-346.525	536.029	6.55469	
14.6418	-346.527	536.037	6.44415	
14.6468	-346.542	535.961	6.13635	
14.6518	-346.72	536.115	6.36023	
14.6567	-346.866	536.352	6.76325	
14.6617	-346.844	536.35	6.61499	
14.6667	-346.889	536.232	6.22937	
14.6717	-347.116	536.338	6.36774	
14.6767	-347.255	536.579	6.71588	
14.6817	-347.169	536.628	6.5412	
14.6867	-347.116	536.573	6.19989	
14.6917	-347.268	536.716	6.38538	
14.6967	-347.372	536.97	6.75629	
14.7017	-347.297	536.984	6.59753	
14.7067	-347.286	536.869	6.23511	
14.7117	-347.468	536.994	6.37982	
14.7167	-347.601	537.215	6.71454	
14.7216	-347.534	537.229	6.55438	
14.7266	-347.501	537.16	6.2146	
14.7316	-347.678	537.265	6.36334	
14.7366	-347.823	537.45	6.67767	
14.7416	-347.758	537.454	6.49933	
14.7466	-347.728	537.365	6.1449	
14.7516	-347.892	537.478	6.3009	
14.7566	-347.994	537.718	6.64832	
14.7616	-347.871	537.762	6.49207	
14.7666	-347.801	537.687	6.15118	
14.7716	-347.958	537.795	6.28748	
14.7766	-348.1	537.991	6.60053	
14.7815	-348.05	537.995	6.44739	
14.7865	-348.024	537.886	6.13281	
14.7915	-348.201	537.971	6.29987	
14.7965	-348.354	538.19	6.64435	
14.8015	-348.289	538.219	6.49823	
14.8065	-348.239	538.129	6.15393	
14.8115	-348.38	538.237	6.32318	
14.8165	-348.498	538.462	6.6828	
14.8215	-348.401	538.495	6.54688	
14.8265	-348.279	538.437	6.22333	
14.8315	-348.382	538.541	6.36365	
14.8365	-348.504	538.738	6.68964	
14.8415	-348.429	538.759	6.53583	
14.8464	-348.37	538.662	6.20673	
14.8514	-348.498	538.751	6.35382	
14.8564	-348.612	538.938	6.67474	
14.8614	-348.537	538.94	6.53479	
14.8664	-348.474	538.829	6.21362	
14.8714	-348.607	538.893	6.35059	
14.8764	-348.734	539.081	6.68274	
14.8814	-348.668	539.101	6.56134	
14.8864	-348.608	539.003	6.22852	
14.8914	-348.72	539.081	6.34778	
14.8964	-348.827	539.271	6.67676	
14.9014	-348.759	539.282	6.55566	
14.9064	-348.695	539.183	6.23615	
14.9113	-348.821	539.258	6.35925	
14.9163	-348.942	539.449	6.68927	
14.9213	-348.882	539.468	6.58014	
14.9263	-348.845	539.358	6.27692	
14.9313	-349.004	539.415	6.41217	
14.9363	-349.154	539.586	6.74017	
14.9413	-349.115	539.582	6.64325	
14.9463	-349.065	539.465	6.33368	
14.9513	-349.175	539.53	6.43921	
14.9563	-349.282	539.739	6.76587	
14.9613	-349.187	539.801	6.6734	
14.9663	-349.054	539.739	6.37616	
14.9712	-349.072	539.858	6.51703	
14.9762	-349.099	540.107	6.88623	
14.9812	-348.991	540.161	6.82544	
14.9862	-348.896	540.073	6.50183	
14.9912	-348.968	540.125	6.57593	
14.9962	-349.053	540.321	6.88635	
15.0012	-348.985	540.372	6.78558	
15.0062	-348.909	540.284	6.44324	
15.0112	-348.998	540.365	6.50934	
15.0162	-349.125	540.55	6.80859	
15.0212	-349.102	540.57	6.70984	
15.0262	-349.029	540.455	6.36884	
15.0312	-349.107	540.506	6.4129	
15.0361	-349.238	540.707	6.70953	
15.0411	-349.199	540.754	6.62531	
15.0461	-349.126	540.662	6.29474	
15.0511	-349.234	540.705	6.35523	
15.0561	-349.385	540.883	6.6665	
15.0611	-349.368	540.902	6.59662	
15.0661	-349.301	540.786	6.27271	
15.0711	-349.399	540.829	6.3252	
15.0761	-349.585	540.997	6.65491	
15.0811	-349.635	540.998	6.61615	
15.0861	-349.608	540.852	6.29633	
15.0911	-349.706	540.875	6.34692	
15.096	-349.826	541.069	6.66577	
15.101	-349.746	541.147	6.60095	
15.106	-349.578	541.1	6.25409	
15.111	-349.577	541.181	6.2818	
15.116	-349.686	541.399	6.61279	
15.121	-349.667	541.461	6.59021	
15.126	-349.57	541.363	6.26068	
15.131	-349.63	541.409	6.29285	
15.136	-349.778	541.584	6.62964	
15.141	-349.78	541.619	6.5993	
15.146	-349.693	541.518	6.26843	
15.151	-349.752	541.548	6.29602	
15.156	-349.907	541.731	6.63739	
15.1609	-349.923	541.78	6.62561	
15.1659	-349.822	541.681	6.2807	
15.1709	-349.852	541.722	6.28186	
15.1759	-349.983	541.906	6.61597	
15.1809	-349.977	541.945	6.61035	
15.1859	-349.878	541.839	6.27454	
15.1909	-349.916	541.875	6.27435	
15.1959	-350.081	542.047	6.62409	
15.2009	-350.109	542.081	6.64893	
15.2059	-349.99	541.984	6.32745	
15.2109	-349.998	542.015	6.34113	
15.2159	-350.135	542.198	6.69745	
15.2209	-350.154	542.255	6.71533	
15.2258	-350.053	542.138	6.39575	
15.2308	-350.085	542.155	6.40393	
15.2358	-350.255	542.338	6.75714	
15.2408	-350.282	542.382	6.79016	
15.2458	-350.15	542.272	6.46014	
15.2508	-350.155	542.305	6.43982	
15.2558	-350.306	542.491	6.78497	
15.2608	-350.314	542.52	6.80853	
15.2658	-350.176	542.407	6.4574	
15.2708	-350.15	542.466	6.42352	
15.2758	-350.284	542.648	6.75739	
15.2808	-350.309	542.686	6.77289	
15.2857	-350.157	542.615	6.40735	
15.2907	-350.143	542.63	6.36536	
15.2957	-350.31	542.778	6.70142	
15.3007	-350.359	542.82	6.72144	
15.3057	-350.246	542.702	6.37701	
15.3107	-350.241	542.718	6.33478	
15.3157	-350.396	542.907	6.65466	
15.3207	-350.432	542.965	6.67865	
15.3257	-350.297	542.842	6.32892	
15.3307	-350.29	542.844	6.29096	
15.3357	-350.46	543.026	6.64258	
15.3407	-350.491	543.087	6.68274	
15.3457	-350.334	542.981	6.33045	
15.3506	-350.298	543.009	6.28662	
15.3556	-350.453	543.193	6.6416	
15.3606	-350.504	543.242	6.70899	
15.3656	-350.383	543.118	6.38062	
15.3706	-350.396	543.107	6.34497	
15.3756	-350.587	543.26	6.71338	
15.3806	-350.644	543.31	6.77063	
15.3856	-350.51	543.194	6.41669	
15.3906	-350.509	543.181	6.36066	
15.3956	-350.712	543.343	6.71448	
15.4006	-350.78	543.401	6.76221	
15.4056	-350.607	543.299	6.38147	
15.4106	-350.531	543.335	6.29596	
15.4155	-350.677	543.531	6.64313	
15.4205	-350.711	543.595	6.70056	
15.4255	-350.539	543.488	6.3382	
15.4305	-350.501	543.491	6.28668	
15.4355	-350.679	543.668	6.66211	
15.4405	-350.742	543.72	6.73425	
15.4455	-350.586	543.595	6.36493	
15.4505	-350.551	543.588	6.29175	
15.4555	-350.768	543.741	6.67658	
15.4605	-350.859	543.775	6.76373	
15.4655	-350.697	543.642	6.38342	
15.4705	-350.651	543.62	6.3053	
15.4754	-350.844	543.779	6.69013	
15.4804	-350.919	543.837	6.78082	
15.4854	-350.738	543.723	6.40826	
15.4904	-350.683	543.717	6.33057	
15.4954	-350.888	543.873	6.72559	
15.5004	-350.969	543.915	6.82849	
15.5054	-350.798	543.786	6.46307	
15.5104	-350.763	543.761	6.39514	
15.5154	-351	543.914	6.81604	
15.5204	-351.113	543.951	6.93823	
15.5254	-350.966	543.803	6.57239	
15.5304	-350.938	543.767	6.49506	
15.5354	-351.162	543.915	6.90155	
15.5403	-351.232	543.988	7.00806	
15.5453	-350.994	543.904	6.60944	
15.5503	-350.892	543.934	6.47778	
15.5553	-351.084	544.111	6.83514	
15.5603	-351.146	544.178	6.93292	
15.5653	-350.96	544.051	6.539	
15.5703	-350.908	544.038	6.41174	
15.5753	-351.102	544.221	6.76758	
15.5803	-351.162	544.276	6.84461	
15.5853	-350.949	544.171	6.42377	
15.5903	-350.868	544.176	6.28235	
15.5953	-351.085	544.357	6.65308	
15.6002	-351.19	544.417	6.75165	
15.6052	-351.011	544.288	6.34863	
15.6102	-350.941	544.267	6.23108	
15.6152	-351.155	544.428	6.61987	
15.6202	-351.253	544.484	6.72516	
15.6252	-351.051	544.365	6.32166	
15.6302	-350.984	544.346	6.19623	
15.6352	-351.237	544.508	6.59979	
15.6402	-351.364	544.565	6.73206	
15.6452	-351.177	544.428	6.32947	
15.6502	-351.122	544.398	6.19354	
15.6552	-351.372	544.552	6.58435	
15.6602	-351.514	544.584	6.71118	
15.6651	-351.386	544.409	6.30676	
15.6701	-351.395	544.336	6.1759	
15.6751	-351.707	544.46	6.5968	
15.6801	-351.857	544.498	6.74158	
15.6851	-351.641	544.381	6.31622	
15.6901	-351.517	544.383	6.1546	
15.6951	-351.72	544.565	6.5448	
15.7001	-351.815	544.645	6.67841	
15.7051	-351.598	544.515	6.26941	
15.7101	-351.541	544.482	6.13318	
15.7151	-351.805	544.661	6.55792	
15.7201	-351.909	544.736	6.69684	
15.7251	-351.689	544.617	6.27051	
15.73	-351.613	544.597	6.13135	
15.735	-351.879	544.747	6.56372	
15.74	-352.029	544.779	6.71625	
15.745	-351.843	544.641	6.29968	
15.75	-351.776	544.615	6.16052	
15.755	-352.036	544.786	6.60645	
15.76	-352.159	544.858	6.7677	
15.765	-351.951	544.728	6.33063	
15.77	-351.874	544.695	6.18176	
15.775	-352.146	544.838	6.63513	
15.78	-352.275	544.896	6.79785	
15.785	-352	544.806	6.34747	
15.7899	-351.853	544.813	6.17847	
15.7949	-352.11	544.992	6.62158	
15.7999	-352.244	545.069	6.7962	
15.8049	-351.994	544.938	6.35944	
15.8099	-351.885	544.91	6.18298	
15.8149	-352.141	545.085	6.5979	
15.8199	-352.246	545.163	6.74231	
15.8249	-351.995	545.045	6.29535	
15.8299	-351.899	545.009	6.12036	
15.8349	-352.176	545.172	6.55145	
15.8399	-352.279	545.255	6.72846	
15.8449	-352.009	545.127	6.297	
15.8499	-351.898	545.073	6.12067	
15.8548	-352.143	545.209	6.55664	
15.8598	-352.256	545.254	6.73114	
15.8648	-352.02	545.112	6.30475	
15.8698	-351.922	545.067	6.13971	
15.8748	-352.173	545.224	6.58246	
15.8798	-352.28	545.279	6.76514	
15.8848	-352.022	545.125	6.32214	
15.8898	-351.906	545.071	6.13629	
15.8948	-352.164	545.214	6.57153	
15.8998	-352.268	545.266	6.74201	
15.9048	-352.001	545.126	6.30396	
15.9098	-351.885	545.075	6.13898	
15.9148	-352.145	545.232	6.5893	
15.9197	-352.265	545.298	6.77429	
15.9247	-352	545.15	6.31641	
15.9297	-351.879	545.083	6.12494	
15.9347	-352.144	545.222	6.57629	
15.9397	-352.263	545.283	6.75623	
15.9447	-351.991	545.139	6.31299	
15.9497	-351.878	545.079	6.13403	
15.9547	-352.151	545.241	6.5943	
15.9597	-352.262	545.298	6.79028	
15.9647	-351.984	545.139	6.32617	
15.9697	-351.869	545.075	6.12518	
15.9747	-352.142	545.222	6.57507	
15.9796	-352.261	545.288	6.7688	
15.9846	-351.984	545.142	6.30994	
15.9896	-351.861	545.074	6.12024	
15.9946	-352.135	545.23	6.5802	
15.9996	-352.251	545.304	6.77466	
16.0046	-351.973	545.155	6.31677	
16.0096	-351.857	545.085	6.11121	
16.0146	-352.145	545.225	6.57245	
16.0196	-352.264	545.292	6.76849	
16.0246	-351.976	545.148	6.30481	
16.0296	-351.858	545.085	6.1117	
16.0346	-352.135	545.238	6.58142	
16.0396	-352.246	545.308	6.78729	
16.0445	-351.968	545.156	6.31805	
16.0495	-351.85	545.087	6.10559	
16.0545	-352.142	545.228	6.57166	
16.0595	-352.266	545.291	6.78168	
16.0645	-351.969	545.149	6.31104	
16.0695	-351.844	545.084	6.10333	
16.0745	-352.135	545.241	6.57568	
16.0795	-352.259	545.31	6.78931	
16.0845	-351.964	545.153	6.31378	
16.0895	-351.845	545.082	6.09509	
16.0945	-352.141	545.229	6.573	
16.0995	-352.264	545.297	6.78821	
16.1044	-351.965	545.15	6.30963	
16.1094	-351.834	545.082	6.09137	
16.1144	-352.127	545.236	6.56903	
16.1194	-352.251	545.31	6.78851	
16.1244	-351.965	545.164	6.31867	
16.1294	-351.849	545.093	6.10455	
16.1344	-352.142	545.232	6.57495	
16.1394	-352.265	545.298	6.78259	
16.1444	-351.96	545.157	6.30298	
16.1494	-351.829	545.087	6.09796	
16.1544	-352.133	545.239	6.58222	
16.1594	-352.259	545.312	6.79614	
16.1644	-351.961	545.157	6.3183	
16.1693	-351.841	545.087	6.09369	
16.1743	-352.143	545.227	6.5669	
16.1793	-352.269	545.292	6.78937	
16.1843	-351.959	545.153	6.3078	
16.1893	-351.828	545.093	6.08667	
16.1943	-352.139	545.252	6.56592	
16.1993	-352.266	545.319	6.78864	
16.2043	-351.962	545.165	6.32007	
16.2093	-351.837	545.091	6.10278	
16.2143	-352.131	545.231	6.57678	
16.2193	-352.259	545.304	6.78558	
16.2243	-351.957	545.156	6.28796	
16.2293	-351.826	545.08	6.06751	
16.2342	-352.141	545.234	6.56934	
16.2392	-352.276	545.315	6.80322	
16.2442	-351.961	545.166	6.32398	
16.2492	-351.832	545.085	6.09186	
16.2542	-352.142	545.228	6.56604	
16.2592	-352.267	545.302	6.79596	
16.2642	-351.955	545.15	6.30566	
16.2692	-351.829	545.081	6.08057	
16.2742	-352.142	545.244	6.58563	
16.2792	-352.276	545.329	6.81586	
16.2842	-351.965	545.171	6.31079	
16.2892	-351.828	545.077	6.07336	
16.2941	-352.132	545.224	6.55884	
16.2991	-352.256	545.315	6.79083	
16.3041	-351.947	545.17	6.30817	
16.3091	-351.829	545.082	6.07721	
16.3141	-352.146	545.236	6.57959	
16.3191	-352.269	545.329	6.81915	
16.3241	-351.949	545.178	6.32098	
16.3291	-351.817	545.086	6.08826	
16.3341	-352.125	545.23	6.56903	
16.3391	-352.253	545.313	6.78992	
16.3441	-351.943	545.167	6.30347	
16.3491	-351.819	545.089	6.07825	
16.3541	-352.14	545.247	6.57703	
16.359	-352.266	545.333	6.80768	
16.364	-351.946	545.176	6.31079	
16.369	-351.823	545.083	6.07471	
16.374	-352.142	545.224	6.55743	
16.379	-352.266	545.31	6.78681	
16.384	-351.944	545.174	6.30707	
16.389	-351.815	545.094	6.08844	
16.394	-352.134	545.25	6.57385	
16.399	-352.266	545.331	6.79828	
16.404	-351.945	545.162	6.30676	
16.409	-351.816	545.07	6.07489	
16.414	-352.138	545.225	6.56281	
16.419	-352.268	545.315	6.79358	
16.4239	-351.951	545.171	6.31415	
16.4289	-351.82	545.09	6.08606	
16.4339	-352.143	545.248	6.57544	
16.4389	-352.267	545.338	6.80365	
16.4439	-351.93	545.173	6.31201	
16.4489	-351.814	545.075	6.07703	
16.4539	-352.15	545.226	6.54871	
16.4589	-352.267	545.319	6.77686	
16.4639	-351.934	545.165	6.29974	
16.4689	-351.816	545.084	6.07672	
16.4739	-352.147	545.251	6.57623	
16.4789	-352.269	545.336	6.80872	
16.4838	-351.936	545.166	6.30902	
16.4888	-351.814	545.073	6.07404	
16.4938	-352.15	545.235	6.55963	
16.4988	-352.271	545.323	6.78967	
16.5038	-351.936	545.169	6.31397	
16.5088	-351.816	545.078	6.086	
16.5138	-352.155	545.236	6.57105	
16.5188	-352.274	545.331	6.79871	
16.5238	-351.93	545.171	6.30389	
16.5288	-351.808	545.068	6.07001	
16.5338	-352.15	545.219	6.56091	
16.5388	-352.27	545.318	6.78937	
16.5438	-351.938	545.172	6.29932	
16.5487	-351.82	545.076	6.07672	
16.5537	-352.149	545.227	6.5697	
16.5587	-352.262	545.33	6.80762	
16.5637	-351.926	545.176	6.31079	
16.5687	-351.812	545.073	6.06128	
16.5737	-352.147	545.22	6.55212	
16.5787	-352.259	545.312	6.79474	
16.5837	-351.927	545.164	6.32098	
16.5887	-351.817	545.071	6.09113	
16.5937	-352.142	545.231	6.56683	
16.5987	-352.257	545.334	6.8042	
16.6037	-351.931	545.176	6.31982	
16.6086	-351.819	545.065	6.07983	
16.6136	-352.154	545.218	6.55286	
16.6186	-352.274	545.32	6.7843	
16.6236	-351.943	545.171	6.31445	
16.6286	-351.822	545.083	6.07965	
16.6336	-352.148	545.236	6.55737	
16.6386	-352.256	545.328	6.80103	
16.6436	-351.919	545.167	6.32098	
16.6486	-351.801	545.063	6.0838	
16.6536	-352.144	545.222	6.55029	
16.6586	-352.271	545.321	6.77509	
16.6636	-351.938	545.168	6.31671	
16.6686	-351.817	545.071	6.08801	
16.6735	-352.156	545.227	6.55505	
16.6785	-352.271	545.333	6.78729	
16.6835	-351.927	545.182	6.315	
16.6885	-351.818	545.069	6.07428	
16.6935	-352.154	545.209	6.54077	
16.6985	-352.26	545.312	6.7804	
16.7035	-351.922	545.167	6.31665	
16.7085	-351.812	545.073	6.09039	
16.7135	-352.147	545.227	6.55371	
16.7185	-352.259	545.328	6.77405	
16.7235	-351.932	545.167	6.3122	
16.7285	-351.822	545.059	6.09399	
16.7335	-352.159	545.214	6.55524	
16.7384	-352.268	545.322	6.77252	
16.7434	-351.921	545.175	6.30432	
16.7484	-351.812	545.071	6.07758	
16.7534	-352.15	545.226	6.5481	
16.7584	-352.252	545.336	6.78497	
16.7634	-351.921	545.179	6.33136	
16.7684	-351.818	545.065	6.09247	
16.7734	-352.156	545.21	6.53241	
16.7784	-352.263	545.321	6.7591	
16.7834	-351.924	545.18	6.3147	
16.7884	-351.817	545.072	6.09381	
16.7934	-352.149	545.227	6.54871	
16.7983	-352.257	545.336	6.7782	
16.8033	-351.927	545.177	6.32825	
16.8083	-351.819	545.054	6.09461	
16.8133	-352.154	545.203	6.54205	
16.8183	-352.255	545.328	6.77399	
16.8233	-351.911	545.192	6.32153	
16.8283	-351.812	545.08	6.09961	
16.8333	-352.151	545.217	6.54926	
16.8383	-352.254	545.333	6.7724	
16.8433	-351.928	545.183	6.32465	
16.8483	-351.828	545.06	6.09558	
16.8533	-352.152	545.211	6.53687	
16.8583	-352.25	545.333	6.7594	
16.8632	-351.924	545.187	6.32117	
16.8682	-351.819	545.071	6.09375	
16.8732	-352.149	545.217	6.53143	
16.8782	-352.252	545.328	6.76569	
16.8832	-351.928	545.177	6.33405	
16.8882	-351.829	545.051	6.10339	
16.8932	-352.154	545.196	6.53351	
16.8982	-352.251	545.33	6.75391	
16.9032	-351.919	545.2	6.32806	
16.9082	-351.824	545.078	6.1156	
16.9132	-352.153	545.215	6.54364	
16.9182	-352.246	545.333	6.7652	
16.9232	-351.927	545.189	6.33563	
16.9281	-351.833	545.063	6.10169	
16.9331	-352.148	545.198	6.52039	
16.9381	-352.241	545.321	6.75726	
16.9431	-351.92	545.191	6.34857	
16.9481	-351.834	545.083	6.11285	
16.9531	-352.158	545.219	6.52185	
16.9581	-352.252	545.329	6.75391	
16.9631	-351.94	545.182	6.34467	
16.9681	-351.84	545.056	6.11554	
16.9731	-352.144	545.196	6.51526	
16.9781	-352.232	545.322	6.73847	
16.9831	-351.919	545.196	6.3374	
16.988	-351.826	545.073	6.12543	
16.993	-352.143	545.209	6.53619	
16.998	-352.244	545.333	6.75073	
17.003	-351.93	545.191	6.34784	
17.008	-351.834	545.061	6.12201	
17.013	-352.143	545.201	6.5044	
17.018	-352.238	545.328	6.7301	
17.023	-351.929	545.189	6.35126	
17.028	-351.837	545.075	6.12927	
17.033	-352.152	545.22	6.52246	
17.038	-352.246	545.337	6.75226	
17.043	-351.933	545.184	6.35516	
17.048	-351.839	545.048	6.12122	
17.0529	-352.138	545.184	6.50555	
17.0579	-352.226	545.33	6.72595	
17.0629	-351.933	545.203	6.34845	
17.0679	-351.847	545.072	6.14056	
17.0729	-352.149	545.21	6.52387	
17.0779	-352.233	545.337	6.73999	
17.0829	-351.92	545.193	6.3573	
17.0879	-351.834	545.055	6.11975	
17.0929	-352.142	545.198	6.48926	
17.0979	-352.233	545.345	6.72089	
17.1029	-351.942	545.21	6.35742	
17.1079	-351.854	545.071	6.14166	
17.1128	-352.145	545.2	6.513	
17.1178	-352.227	545.332	6.72669	
17.1228	-351.92	545.2	6.34595	
17.1278	-351.835	545.054	6.12158	
17.1328	-352.137	545.186	6.48749	
17.1378	-352.222	545.336	6.72302	
17.1428	-351.933	545.212	6.37817	
17.1478	-351.85	545.081	6.14954	
17.1528	-352.137	545.207	6.4953	
17.1578	-352.22	545.328	6.7193	
17.1628	-351.933	545.189	6.36108	
17.1678	-351.853	545.061	6.12537	
17.1728	-352.133	545.195	6.47443	
17.1777	-352.221	545.329	6.71314	
17.1827	-351.946	545.203	6.3811	
17.1877	-351.854	545.073	6.15729	
17.1927	-352.133	545.203	6.49097	
17.1977	-352.218	545.334	6.71784	
17.2027	-351.937	545.201	6.37634	
17.2077	-351.854	545.066	6.13727	
17.2127	-352.136	545.196	6.4812	
17.2177	-352.221	545.334	6.71838	
17.2227	-351.947	545.208	6.39093	
17.2277	-351.864	545.076	6.15466	
17.2327	-352.129	545.206	6.4743	
17.2377	-352.209	545.331	6.70911	
17.2426	-351.94	545.198	6.38294	
17.2476	-351.858	545.057	6.15259	
17.2526	-352.131	545.184	6.47589	
17.2576	-352.216	545.334	6.71362	
17.2626	-351.946	545.209	6.401	
17.2676	-351.861	545.075	6.16229	
17.2726	-352.122	545.201	6.46326	
17.2776	-352.208	545.33	6.69586	
17.2826	-351.951	545.204	6.39288	
17.2876	-351.87	545.058	6.16492	
17.2926	-352.123	545.178	6.46594	
17.2976	-352.204	545.328	6.69074	
17.3025	-351.952	545.207	6.4057	
17.3075	-351.87	545.06	6.17548	
17.3125	-352.121	545.192	6.45801	
17.3175	-352.207	545.337	6.69214	
17.3225	-351.956	545.201	6.39874	
17.3275	-351.871	545.055	6.16089	
17.3325	-352.125	545.186	6.45606	
17.3375	-352.202	545.337	6.70007	
17.3425	-351.96	545.213	6.42163	
17.3475	-351.878	545.069	6.17932	
17.3525	-352.114	545.185	6.45374	
17.3575	-352.207	545.328	6.69116	
17.3625	-351.971	545.206	6.40826	
17.3674	-351.877	545.049	6.16718	
17.3724	-352.11	545.174	6.45136	
17.3774	-352.192	545.337	6.703	
17.3824	-351.956	545.222	6.4303	
17.3874	-351.875	545.071	6.17957	
17.3924	-352.108	545.192	6.4433	
17.3974	-352.2	545.338	6.68915	
17.4024	-351.969	545.211	6.41791	
17.4074	-351.869	545.057	6.16785	
17.4124	-352.102	545.176	6.43536	
17.4174	-352.197	545.337	6.68848	
17.4224	-351.958	545.228	6.43579	
17.4274	-351.873	545.065	6.19128	
17.4323	-352.105	545.177	6.44287	
17.4373	-352.186	545.334	6.68524	
17.4423	-351.967	545.218	6.4256	
17.4473	-351.887	545.062	6.16882	
17.4523	-352.105	545.178	6.42426	
17.4573	-352.192	545.336	6.68774	
17.4623	-351.968	545.231	6.44959	
17.4673	-351.881	545.082	6.19531	
17.4723	-352.096	545.192	6.4195	
17.4773	-352.181	545.335	6.67145	
17.4823	-351.972	545.207	6.43652	
17.4873	-351.887	545.054	6.17267	
17.4922	-352.099	545.177	6.40967	
17.4972	-352.181	545.34	6.6698	
17.5022	-351.972	545.224	6.44977	
17.5072	-351.888	545.068	6.19531	
17.5122	-352.092	545.181	6.4162	
17.5172	-352.173	545.328	6.67456	
17.5222	-351.971	545.214	6.44983	
17.5272	-351.888	545.057	6.18115	
17.5322	-352.091	545.173	6.39935	
17.5372	-352.176	545.343	6.6698	
17.5422	-351.976	545.225	6.47144	
17.5472	-351.889	545.062	6.21368	
17.5522	-352.08	545.178	6.40546	
17.5571	-352.168	545.332	6.65375	
17.5621	-351.984	545.213	6.44843	
17.5671	-351.9	545.052	6.18951	
17.5721	-352.085	545.175	6.39478	
17.5771	-352.177	545.341	6.66699	
17.5821	-351.991	545.229	6.47095	
17.5871	-351.898	545.066	6.21259	
17.5921	-352.077	545.175	6.41467	
17.5971	-352.155	545.336	6.66101	
17.6021	-351.986	545.209	6.44806	
17.6071	-351.909	545.053	6.19238	
17.6121	-352.078	545.182	6.39368	
17.617	-352.167	545.342	6.65753	
17.622	-351.991	545.225	6.47003	
17.627	-351.904	545.058	6.20313	
17.632	-352.077	545.167	6.39252	
17.637	-352.153	545.332	6.66235	
17.642	-351.979	545.216	6.47376	
17.647	-351.895	545.045	6.20081	
17.652	-352.066	545.159	6.38702	
17.657	-352.162	545.333	6.66425	
17.662	-351.998	545.238	6.48389	
17.667	-351.905	545.067	6.20789	
17.672	-352.074	545.164	6.38934	
17.677	-352.157	545.325	6.65735	
17.6819	-351.987	545.211	6.47009	
17.6869	-351.913	545.053	6.19733	
17.6919	-352.075	545.175	6.38153	
17.6969	-352.151	545.341	6.66785	
17.7019	-351.989	545.22	6.48975	
17.7069	-351.903	545.05	6.20758	
17.7119	-352.066	545.159	6.38068	
17.7169	-352.147	545.328	6.65723	
17.7219	-351.996	545.225	6.48657	
17.7269	-351.914	545.054	6.20368	
17.7319	-352.061	545.168	6.36969	
17.7369	-352.152	545.343	6.6568	
17.7419	-352	545.234	6.48865	
17.7468	-351.912	545.062	6.20654	
17.7518	-352.07	545.165	6.37506	
17.7568	-352.152	545.331	6.66144	
17.7618	-351.994	545.217	6.49555	
17.7668	-351.908	545.053	6.20142	
17.7718	-352.061	545.169	6.36359	
17.7768	-352.153	545.334	6.65997	
17.7818	-352.006	545.223	6.51062	
17.7868	-351.913	545.051	6.22284	
17.7918	-352.058	545.158	6.37323	
17.7968	-352.15	545.333	6.65149	
17.8018	-352.001	545.226	6.49268	
17.8067	-351.916	545.056	6.20947	
17.8117	-352.053	545.156	6.36731	
17.8167	-352.135	545.327	6.65851	
17.8217	-352.002	545.228	6.51117	
17.8267	-351.921	545.062	6.21948	
17.8317	-352.065	545.161	6.37073	
17.8367	-352.147	545.325	6.65942	
17.8417	-352.003	545.221	6.50317	
17.8467	-351.91	545.053	6.21027	
17.8517	-352.051	545.167	6.35547	
17.8567	-352.147	545.336	6.65442	
17.8617	-352.01	545.223	6.51624	
17.8667	-351.916	545.054	6.2229	
17.8716	-352.048	545.17	6.37036	
17.8766	-352.138	545.343	6.65747	
17.8816	-352.002	545.224	6.50061	
17.8866	-351.918	545.049	6.20532	
17.8916	-352.059	545.162	6.35999	
17.8966	-352.147	545.338	6.65253	
17.9016	-352.01	545.23	6.51013	
17.9066	-351.917	545.054	6.22443	
17.9116	-352.054	545.158	6.35974	
17.9166	-352.141	545.33	6.65198	
17.9216	-352.006	545.214	6.50824	
17.9266	-351.92	545.041	6.21063	
17.9316	-352.055	545.164	6.35767	
17.9365	-352.145	545.339	6.66016	
17.9415	-352.012	545.226	6.51703	
17.9465	-351.918	545.046	6.21259	
17.9515	-352.051	545.147	6.34985	
17.9565	-352.15	545.327	6.65094	
17.9615	-352.015	545.231	6.50305	
17.9665	-351.921	545.057	6.1958	
17.9715	-352.053	545.165	6.35486	
17.9765	-352.144	545.337	6.67597	
17.9815	-352.011	545.231	6.52704	
17.9865	-351.914	545.059	6.20667	
17.9915	-352.051	545.155	6.34332	
17.9964	-352.15	545.323	6.65845	
18.0014	-352.02	545.222	6.51587	
18.0064	-351.924	545.055	6.19818	
18.0114	-352.05	545.162	6.34546	
18.0164	-352.146	545.337	6.67188	
18.0214	-352.013	545.236	6.53455	
18.0264	-351.914	545.06	6.20807	
18.0314	-352.05	545.16	6.33984	
18.0364	-352.147	545.327	6.65692	
18.0414	-352.01	545.222	6.51337	
18.0464	-351.917	545.051	6.19562	
18.0514	-352.051	545.152	6.34412	
18.0564	-352.138	545.325	6.66797	
18.0613	-352.011	545.234	6.52503	
18.0663	-351.919	545.075	6.20441	
18.0713	-352.044	545.167	6.34796	
18.0763	-352.138	545.322	6.66132	
18.0813	-352.011	545.224	6.51581	
18.0863	-351.921	545.059	6.18958	
18.0913	-352.052	545.158	6.32837	
18.0963	-352.148	545.33	6.66174	
18.1013	-352.019	545.238	6.53204	
18.1063	-351.922	545.063	6.20599	
18.1113	-352.05	545.149	6.33722	
18.1163	-352.144	545.317	6.65692	
18.1212	-352.013	545.224	6.51935	
18.1262	-351.918	545.059	6.19513	
18.1312	-352.05	545.163	6.34186	
18.1362	-352.145	545.336	6.67499	
18.1412	-352.017	545.23	6.52728	
18.1462	-351.928	545.061	6.19733	
18.1512	-352.05	545.161	6.34094	
18.1562	-352.142	545.321	6.66345	
18.1612	-352.014	545.224	6.52252	
18.1662	-351.918	545.057	6.19775	
18.1712	-352.051	545.157	6.33325	
18.1762	-352.149	545.334	6.66895	
18.1812	-352.026	545.238	6.53845	
18.1861	-351.925	545.059	6.20709	
18.1911	-352.04	545.151	6.33734	
18.1961	-352.133	545.317	6.65802	
18.2011	-352.012	545.22	6.51099	
18.2061	-351.92	545.053	6.18225	
18.2111	-352.047	545.158	6.33325	
18.2161	-352.146	545.332	6.67487	
18.2211	-352.021	545.23	6.53742	
18.2261	-351.926	545.058	6.19324	
18.2311	-352.052	545.156	6.32855	
18.2361	-352.14	545.331	6.66504	
18.2411	-352.016	545.238	6.52557	
18.2461	-351.925	545.063	6.19104	
18.251	-352.047	545.156	6.33734	
18.256	-352.139	545.33	6.68701	
18.261	-352.015	545.236	6.53827	
18.266	-351.924	545.062	6.18048	
18.271	-352.048	545.152	6.3244	
18.276	-352.14	545.317	6.66846	
18.281	-352.019	545.224	6.52387	
18.286	-351.931	545.066	6.18414	
18.291	-352.05	545.163	6.33106	
18.296	-352.136	545.33	6.67987	
18.301	-352.019	545.234	6.54035	
18.306	-351.928	545.062	6.19067	
18.3109	-352.042	545.149	6.31854	
18.3159	-352.133	545.319	6.65631	
18.3209	-352.021	545.232	6.5177	
18.3259	-351.931	545.063	6.17883	
18.3309	-352.048	545.164	6.32947	
18.3359	-352.143	545.334	6.67871	
18.3409	-352.022	545.239	6.53412	
18.3459	-351.928	545.069	6.18311	
18.3509	-352.054	545.156	6.31653	
18.3559	-352.142	545.317	6.66431	
18.3609	-352.017	545.224	6.52966	
18.3659	-351.926	545.065	6.18744	
18.3709	-352.048	545.163	6.33759	
18.3758	-352.145	545.325	6.68988	
18.3808	-352.024	545.23	6.5434	
18.3858	-351.926	545.067	6.1889	
18.3908	-352.05	545.157	6.31732	
18.3958	-352.145	545.323	6.66223	
18.4008	-352.015	545.229	6.53156	
18.4058	-351.929	545.059	6.18463	
18.4108	-352.06	545.157	6.33399	
18.4158	-352.148	545.332	6.68433	
18.4208	-352.02	545.245	6.539	
18.4258	-351.923	545.068	6.19537	
18.4308	-352.048	545.155	6.33356	
18.4358	-352.14	545.32	6.66467	
18.4407	-352.019	545.219	6.50922	
18.4457	-351.929	545.057	6.17706	
18.4507	-352.044	545.16	6.34107	
18.4557	-352.139	545.332	6.69202	
18.4607	-352.018	545.241	6.54047	
18.4657	-351.922	545.067	6.17944	
18.4707	-352.046	545.154	6.32007	
18.4757	-352.146	545.322	6.66589	
18.4807	-352.026	545.23	6.52716	
18.4857	-351.928	545.061	6.18555	
18.4907	-352.051	545.15	6.33576	
18.4957	-352.14	545.322	6.6839	
18.5006	-352.011	545.235	6.53204	
18.5056	-351.921	545.063	6.18286	
18.5106	-352.049	545.152	6.32233	
18.5156	-352.147	545.316	6.67322	
18.5206	-352.022	545.228	6.52728	
18.5256	-351.919	545.06	6.18274	
18.5306	-352.043	545.154	6.33698	
18.5356	-352.138	545.328	6.68317	
18.5406	-352.012	545.241	6.53711	
18.5456	-351.915	545.074	6.18384	
18.5506	-352.037	545.155	6.32575	
18.5556	-352.14	545.314	6.67749	
18.5606	-352.018	545.227	6.52783	
18.5655	-351.916	545.059	6.18128	
18.5705	-352.046	545.146	6.33759	
18.5755	-352.146	545.32	6.69598	
18.5805	-352.019	545.242	6.54596	
18.5855	-351.927	545.078	6.18567	
18.5905	-352.05	545.158	6.33118	
18.5955	-352.143	545.319	6.68066	
18.6005	-352.022	545.235	6.52618	
18.6055	-351.924	545.07	6.1742	
18.6105	-352.046	545.152	6.33038	
18.6155	-352.144	545.322	6.68506	
18.6205	-352.019	545.247	6.53326	
18.6255	-351.916	545.078	6.1872	
18.6304	-352.042	545.149	6.33655	
18.6354	-352.149	545.314	6.67365	
18.6404	-352.02	545.239	6.52472	
18.6454	-351.919	545.073	6.17914	
18.6504	-352.046	545.157	6.33313	
18.6554	-352.143	545.325	6.68872	
18.6604	-352.019	545.239	6.53491	
18.6654	-351.927	545.076	6.18152	
18.6704	-352.051	545.152	6.32501	
18.6754	-352.14	545.304	6.66797	
18.6804	-352.015	545.229	6.52197	
18.6854	-351.918	545.075	6.18457	
18.6903	-352.038	545.155	6.33777	
18.6953	-352.14	545.327	6.68347	
18.7003	-352.025	545.25	6.53851	
18.7053	-351.929	545.079	6.18933	
18.7103	-352.044	545.15	6.33606	
18.7153	-352.137	545.315	6.68207	
18.7203	-352.014	545.242	6.5249	
18.7253	-351.913	545.074	6.18085	
18.7303	-352.044	545.146	6.34656	
18.7353	-352.145	545.316	6.69104	
18.7403	-352.022	545.243	6.52564	
18.7453	-351.919	545.074	6.1745	
18.7503	-352.035	545.15	6.33337	
18.7552	-352.133	545.317	6.67908	
18.7602	-352.013	545.243	6.52295	
18.7652	-351.918	545.081	6.18811	
18.7702	-352.049	545.156	6.34912	
18.7752	-352.146	545.319	6.68439	
18.7802	-352.016	545.248	6.51379	
18.7852	-351.927	545.074	6.16382	
18.7902	-352.052	545.141	6.32556	
18.7952	-352.146	545.313	6.67993	
18.8002	-352.023	545.245	6.5221	
18.8052	-351.927	545.086	6.1817	
18.8102	-352.049	545.153	6.3537	
18.8151	-352.134	545.307	6.70062	
18.8201	-352.002	545.24	6.53034	
18.8251	-351.911	545.077	6.17206	
18.8301	-352.044	545.136	6.32611	
18.8351	-352.141	545.296	6.66968	
18.8401	-352.016	545.24	6.51166	
18.8451	-351.925	545.085	6.17981	
18.8501	-352.052	545.149	6.35468	
18.8551	-352.149	545.311	6.69354	
18.8601	-352.021	545.248	6.5213	
18.8651	-351.923	545.084	6.177	
18.8701	-352.043	545.145	6.33618	
18.8751	-352.139	545.301	6.68079	
18.88	-352.018	545.238	6.52496	
18.885	-351.922	545.088	6.1864	
18.89	-352.056	545.158	6.34924	
18.895	-352.152	545.314	6.6889	
18.9	-352.021	545.247	6.52112	
18.905	-351.922	545.085	6.17072	
18.91	-352.041	545.133	6.33289	
18.915	-352.137	545.292	6.68066	
18.92	-352.02	545.246	6.53204	
18.925	-351.924	545.089	6.20117	
18.93	-352.04	545.144	6.35718	
18.935	-352.138	545.304	6.68817	
18.94	-352.021	545.245	6.52295	
18.9449	-351.923	545.087	6.1853	
18.9499	-352.047	545.146	6.33826	
18.9549	-352.14	545.3	6.66742	
18.9599	-352.02	545.241	6.51355	
18.9649	-351.926	545.087	6.18854	
18.9699	-352.043	545.145	6.35199	
18.9749	-352.142	545.3	6.68469	
18.9799	-352.023	545.239	6.51508	
18.9849	-351.92	545.082	6.18262	
18.9899	-352.039	545.131	6.34558	
18.9949	-352.143	545.287	6.66712	
18.9999	-352.026	545.247	6.51062	
19.0048	-351.924	545.089	6.19806	
19.0098	-352.04	545.138	6.36438	
19.0148	-352.133	545.292	6.67889	
19.0198	-352.015	545.243	6.51013	
19.0248	-351.93	545.088	6.18189	
19.0298	-352.048	545.134	6.33698	
19.0348	-352.141	545.298	6.6687	
19.0398	-352.023	545.245	6.52081	
19.0448	-351.93	545.086	6.19843	
19.0498	-352.043	545.133	6.35382	
19.0548	-352.133	545.29	6.66693	
19.0598	-352.018	545.259	6.50958	
19.0648	-351.924	545.098	6.19446	
19.0697	-352.04	545.135	6.33984	
19.0747	-352.132	545.292	6.65418	
19.0797	-352.022	545.249	6.51294	
19.0847	-351.933	545.092	6.20178	
19.0897	-352.045	545.131	6.34851	
19.0947	-352.142	545.288	6.6615	
19.0997	-352.031	545.248	6.52063	
19.1047	-351.937	545.085	6.20068	
19.1097	-352.042	545.122	6.33209	
19.1147	-352.133	545.281	6.6521	
19.1197	-352.03	545.246	6.52026	
19.1247	-351.933	545.1	6.20618	
19.1297	-352.041	545.136	6.33655	
19.1346	-352.139	545.282	6.65051	
19.1396	-352.036	545.248	6.51862	
19.1446	-351.938	545.09	6.20471	
19.1496	-352.029	545.119	6.33301	
19.1546	-352.137	545.273	6.63648	
19.1596	-352.046	545.25	6.51593	
19.1646	-351.941	545.102	6.21539	
19.1696	-352.04	545.131	6.33429	
19.1746	-352.137	545.278	6.64209	
19.1796	-352.042	545.239	6.52728	
19.1846	-351.943	545.091	6.20966	
19.1896	-352.036	545.123	6.30896	
19.1945	-352.135	545.266	6.62146	
19.1995	-352.045	545.236	6.52643	
19.2045	-351.952	545.094	6.22797	
19.2095	-352.037	545.126	6.33624	
19.2145	-352.129	545.275	6.63855	
19.2195	-352.045	545.247	6.53009	
19.2245	-351.939	545.091	6.21747	
19.2295	-352.018	545.105	6.30499	
19.2345	-352.13	545.26	6.61646	
19.2395	-352.054	545.254	6.53705	
19.2445	-351.947	545.114	6.23627	
19.2495	-352.012	545.133	6.32526	
19.2545	-352.117	545.267	6.62415	
19.2594	-352.056	545.238	6.53314	
19.2644	-351.952	545.091	6.22492	
19.2694	-352.016	545.117	6.30389	
19.2744	-352.122	545.268	6.60968	
19.2794	-352.069	545.249	6.53656	
19.2844	-351.964	545.106	6.232	
19.2894	-352.019	545.129	6.31024	
19.2944	-352.119	545.276	6.61493	
19.2994	-352.06	545.258	6.53772	
19.3044	-351.957	545.11	6.22809	
19.3094	-352.007	545.109	6.28931	
19.3144	-352.12	545.261	6.60364	
19.3193	-352.078	545.266	6.55139	
19.3243	-351.969	545.118	6.2428	
19.3293	-352.011	545.131	6.297	
19.3343	-352.118	545.273	6.60065	
19.3393	-352.077	545.245	6.54773	
19.3443	-351.97	545.099	6.23444	
19.3493	-352.009	545.116	6.27692	
19.3543	-352.127	545.264	6.60095	
19.3593	-352.087	545.266	6.5639	
19.3643	-351.958	545.122	6.23969	
19.3693	-351.99	545.119	6.27795	
19.3743	-352.115	545.259	6.60193	
19.3793	-352.09	545.253	6.56793	
19.3842	-351.965	545.105	6.24194	
19.3892	-351.991	545.107	6.27039	
19.3942	-352.122	545.26	6.59528	
19.3992	-352.098	545.262	6.578	
19.4042	-351.964	545.12	6.25122	
19.4092	-351.984	545.124	6.26892	
19.4142	-352.115	545.256	6.59876	
19.4192	-352.095	545.253	6.57617	
19.4242	-351.964	545.113	6.24561	
19.4292	-351.979	545.103	6.25714	
19.4342	-352.111	545.25	6.59064	
19.4392	-352.095	545.27	6.58191	
19.4442	-351.961	545.128	6.2547	
19.4491	-351.973	545.115	6.26349	
19.4541	-352.115	545.257	6.59241	
19.4591	-352.109	545.257	6.59296	
19.4641	-351.971	545.111	6.25421	
19.4691	-351.977	545.107	6.24024	
19.4741	-352.115	545.256	6.57288	
19.4791	-352.107	545.265	6.59192	
19.4841	-351.964	545.122	6.26795	
19.4891	-351.971	545.119	6.24982	
19.4941	-352.115	545.252	6.57855	
19.4991	-352.118	545.256	6.60181	
19.5041	-351.974	545.122	6.25678	
19.509	-351.966	545.109	6.22852	
19.514	-352.11	545.248	6.578	
19.519	-352.126	545.266	6.6015	
19.524	-351.98	545.124	6.2699	
19.529	-351.961	545.117	6.25934	
19.534	-352.112	545.263	6.58514	
19.539	-352.128	545.266	6.59638	
19.544	-351.974	545.119	6.2497	
19.549	-351.956	545.107	6.21863	
19.554	-352.112	545.249	6.57135	
19.559	-352.132	545.265	6.62067	
19.564	-351.975	545.124	6.28143	
19.569	-351.951	545.11	6.23468	
19.5739	-352.109	545.249	6.57349	
19.5789	-352.133	545.258	6.60382	
19.5839	-351.974	545.115	6.25391	
19.5889	-351.944	545.106	6.21692	
19.5939	-352.109	545.248	6.56818	
19.5989	-352.144	545.271	6.61932	
19.6039	-351.976	545.129	6.27307	
19.6089	-351.941	545.107	6.22516	
19.6139	-352.104	545.248	6.5708	
19.6189	-352.138	545.264	6.61835	
19.6239	-351.975	545.121	6.25909	
19.6289	-351.936	545.102	6.19879	
19.6339	-352.107	545.248	6.56207	
19.6388	-352.15	545.265	6.62775	
19.6438	-351.974	545.126	6.27344	
19.6488	-351.929	545.106	6.21069	
19.6538	-352.107	545.24	6.56091	
19.6588	-352.153	545.264	6.61554	
19.6638	-351.972	545.124	6.25409	
19.6688	-351.927	545.089	6.19446	
19.6738	-352.109	545.234	6.55701	
19.6788	-352.16	545.274	6.63257	
19.6838	-351.978	545.136	6.27319	
19.6888	-351.924	545.102	6.18884	
19.6938	-352.11	545.237	6.55927	
19.6987	-352.162	545.263	6.64014	
19.7037	-351.976	545.126	6.26679	
19.7087	-351.923	545.102	6.18219	
19.7137	-352.106	545.234	6.5509	
19.7187	-352.16	545.265	6.64093	
19.7237	-351.98	545.126	6.27637	
19.7287	-351.927	545.094	6.19098	
19.7337	-352.119	545.233	6.56384	
19.7387	-352.172	545.262	6.64777	
19.7437	-351.978	545.131	6.26245	
19.7487	-351.917	545.103	6.17218	
19.7537	-352.1	545.239	6.55579	
19.7587	-352.161	545.276	6.66644	
19.7636	-351.97	545.139	6.29346	
19.7686	-351.903	545.107	6.17932	
19.7736	-352.11	545.238	6.55286	
19.7786	-352.188	545.254	6.65472	
19.7836	-351.986	545.112	6.27155	
19.7886	-351.908	545.083	6.16687	
19.7936	-352.105	545.231	6.54712	
19.7986	-352.179	545.27	6.65686	
19.8036	-351.977	545.128	6.2796	
19.8086	-351.898	545.097	6.17249	
19.8136	-352.107	545.234	6.55933	
19.8186	-352.186	545.27	6.6665	
19.8235	-351.968	545.133	6.27258	
19.8285	-351.889	545.091	6.16138	
19.8335	-352.112	545.233	6.55658	
19.8385	-352.194	545.266	6.67896	
19.8435	-351.987	545.119	6.28821	
19.8485	-351.904	545.093	6.16077	
19.8535	-352.113	545.238	6.54669	
19.8585	-352.193	545.266	6.66596	
19.8635	-351.974	545.12	6.26862	
19.8685	-351.89	545.093	6.14526	
19.8735	-352.108	545.24	6.55035	
19.8785	-352.191	545.28	6.68884	
19.8835	-351.97	545.138	6.29303	
19.8884	-351.887	545.086	6.159	
19.8934	-352.112	545.224	6.55151	
19.8984	-352.195	545.266	6.66992	
19.9034	-351.962	545.13	6.26337	
19.9084	-351.879	545.093	6.1366	
19.9134	-352.117	545.236	6.54932	
19.9184	-352.203	545.281	6.69202	
19.9234	-351.97	545.138	6.28882	
19.9284	-351.876	545.094	6.15021	
19.9334	-352.102	545.232	6.55908	
19.9384	-352.2	545.268	6.69	
19.9434	-351.97	545.129	6.26404	
19.9484	-351.88	545.089	6.12982	
19.9533	-352.121	545.23	6.54974	
19.9583	-352.21	545.277	6.7027	
19.9633	-351.969	545.139	6.29736	
19.9683	-351.878	545.084	6.14496	
19.9733	-352.113	545.216	6.55115	
19.9783	-352.203	545.272	6.68597	
19.9833	-351.968	545.14	6.26447	
19.9883	-351.874	545.092	6.11444	
19.9933	-352.113	545.23	6.54828	
19.9983	-352.21	545.281	6.71509	
20.0033	-351.969	545.138	6.28937	
20.0083	-351.874	545.087	6.12775	
20.0132	-352.118	545.223	6.54743	
20.0182	-352.205	545.262	6.69861	
20.0232	-351.959	545.134	6.26807	
20.0282	-351.872	545.092	6.10657	
20.0332	-352.121	545.23	6.53235	
20.0382	-352.221	545.288	6.70728	
20.0432	-351.969	545.145	6.29468	
20.0482	-351.86	545.082	6.13007	
20.0532	-352.113	545.224	6.54773	
20.0582	-352.222	545.283	6.70044	
20.0632	-351.966	545.142	6.26563	
20.0682	-351.853	545.084	6.09552	
20.0732	-352.115	545.225	6.53882	
20.0781	-352.23	545.279	6.73004	
20.0831	-351.972	545.142	6.29334	
20.0881	-351.86	545.095	6.10809	
20.0931	-352.11	545.232	6.53516	
20.0981	-352.218	545.278	6.70837	
20.1031	-351.964	545.145	6.27686	
20.1081	-351.854	545.094	6.10358	
20.1131	-352.123	545.232	6.54987	
20.1181	-352.236	545.29	6.72803	
20.1231	-351.964	545.142	6.28125	
20.1281	-351.845	545.081	6.10059	
20.1331	-352.108	545.225	6.53742	
20.1381	-352.22	545.284	6.71588	
20.143	-351.958	545.148	6.27606	
20.148	-351.853	545.097	6.09686	
20.153	-352.128	545.234	6.54804	
20.158	-352.237	545.281	6.73035	
20.163	-351.964	545.134	6.27698	
20.168	-351.848	545.079	6.09363	
20.173	-352.112	545.229	6.53796	
20.178	-352.231	545.292	6.71716	
20.183	-351.97	545.145	6.26892	
20.188	-351.855	545.085	6.09033	
20.193	-352.123	545.224	6.55335	
20.198	-352.24	545.287	6.74493	
20.2029	-351.958	545.147	6.27979	
20.2079	-351.834	545.079	6.08411	
20.2129	-352.12	545.223	6.54633	
20.2179	-352.237	545.288	6.73529	
20.2229	-351.958	545.15	6.27319	
20.2279	-351.849	545.089	6.07776	
20.2329	-352.126	545.235	6.54205	
20.2379	-352.244	545.296	6.75147	
20.2429	-351.962	545.142	6.28455	
20.2479	-351.838	545.074	6.08093	
20.2529	-352.122	545.217	6.54706	
20.2579	-352.24	545.284	6.74481	
20.2629	-351.96	545.143	6.27594	
20.2678	-351.844	545.075	6.0744	
20.2728	-352.124	545.215	6.54462	
20.2778	-352.246	545.289	6.74945	
20.2828	-351.963	545.148	6.2796	
20.2878	-351.841	545.077	6.06641	
20.2928	-352.132	545.225	6.53534	
20.2978	-352.253	545.291	6.74518	
20.3028	-351.959	545.143	6.27515	
20.3078	-351.831	545.071	6.06775	
20.3128	-352.127	545.218	6.53967	
20.3178	-352.254	545.288	6.76056	
20.3228	-351.954	545.14	6.28772	
20.3277	-351.827	545.072	6.05585	
20.3327	-352.129	545.218	6.52972	
20.3377	-352.256	545.287	6.74988	
20.3427	-351.949	545.14	6.27197	
20.3477	-351.821	545.073	6.05426	
20.3527	-352.12	545.222	6.53711	
20.3577	-352.253	545.286	6.76355	
20.3627	-351.954	545.136	6.28857	
20.3677	-351.822	545.071	6.06952	
20.3727	-352.13	545.216	6.53735	
20.3777	-352.255	545.278	6.75403	
20.3827	-351.952	545.129	6.28095	
20.3877	-351.829	545.067	6.05389	
20.3926	-352.124	545.218	6.53424	
20.3976	-352.251	545.283	6.76666	
20.4026	-351.956	545.132	6.28754	
20.4076	-351.825	545.061	6.05945	
20.4126	-352.129	545.208	6.53211	
20.4176	-352.259	545.285	6.74896	
20.4226	-351.951	545.138	6.2746	
20.4276	-351.826	545.059	6.06305	
20.4326	-352.128	545.211	6.54334	
20.4376	-352.251	545.293	6.76233	
20.4426	-351.945	545.14	6.28015	
20.4476	-351.824	545.061	6.05664	
20.4526	-352.139	545.211	6.53937	
20.4575	-352.264	545.283	6.7547	
20.4625	-351.95	545.139	6.26282	
20.4675	-351.824	545.076	6.0426	
20.4725	-352.135	545.222	6.53381	
20.4775	-352.26	545.288	6.76611	
20.4825	-351.949	545.145	6.28143	
20.4875	-351.826	545.069	6.05298	
20.4925	-352.142	545.213	6.53998	
20.4975	-352.267	545.293	6.75244	
20.5025	-351.949	545.148	6.2511	
20.5075	-351.816	545.07	6.04047	
20.5125	-352.13	545.216	6.54303	
20.5174	-352.264	545.292	6.77313	
20.5224	-351.948	545.141	6.2796	
20.5274	-351.817	545.06	6.03937	
20.5324	-352.132	545.211	6.53101	
20.5374	-352.257	545.284	6.7591	
20.5424	-351.942	545.133	6.26892	
20.5474	-351.82	545.061	6.04504	
20.5524	-352.137	545.214	6.54169	
20.5574	-352.264	545.298	6.77734	
20.5624	-351.943	545.144	6.29175	
