Scan started at 15:02:45 30/09/2014
Time (s)	x (nT)	y (nT)	z (nT)	Frequency (Hz)	x (nT)	y (nT)	z (nT)
0	-367.606	556.904	-23.653	0.195622	44.4528	69.0285	5.90622	
0.00499208	-367.772	557.044	-23.3669	0.293434	36.126	55.3675	5.43211	
0.00998416	-367.869	557.16	-23.1865	0.391245	22.7793	23.7946	5.34585	
0.0149762	-367.618	556.992	-23.5755	0.489056	23.5532	28.8093	4.32535	
0.0199683	-367.52	556.876	-23.7556	0.586867	13.7388	15.7311	2.5388	
0.0249604	-367.774	557.048	-23.3632	0.684678	15.9564	22.2713	1.95825	
0.0299525	-367.872	557.162	-23.1786	0.782489	9.86212	13.4622	1.52347	
0.0349446	-367.623	556.986	-23.5718	0.880301	10.7535	16.0846	1.34172	
0.0399366	-367.525	556.873	-23.7576	0.978112	7.64041	10.2344	1.12942	
0.0449287	-367.776	557.052	-23.37	1.07592	9.0435	12.7427	0.903943	
0.0499208	-367.869	557.168	-23.1945	1.17373	6.30063	8.7415	0.740291	
0.0549129	-367.615	556.986	-23.576	1.27155	7.4572	10.8135	0.439839	
0.059905	-367.524	556.868	-23.7479	1.36936	5.46112	7.72229	0.379718	
0.064897	-367.77	557.049	-23.3537	1.46717	6.22606	9.1999	0.394694	
0.0698891	-367.86	557.17	-23.17	1.56498	4.94369	7.13475	0.367198	
0.0748812	-367.616	556.993	-23.5679	1.66279	5.23443	7.80998	0.345731	
0.0798733	-367.52	556.867	-23.7598	1.7606	4.41108	6.48204	0.332323	
0.0848654	-367.771	557.041	-23.3776	1.85841	4.64954	6.87328	0.305684	
0.0898574	-367.865	557.17	-23.1925	1.95622	4.2128	6.1198	0.329137	
0.0948495	-367.615	556.991	-23.581	2.05403	4.15352	5.99123	0.272179	
0.0998416	-367.53	556.87	-23.7567	2.15185	4.01713	5.74049	0.297698	
0.104834	-367.783	557.053	-23.3594	2.24966	3.69275	5.24168	0.27122	
0.109826	-367.876	557.167	-23.179	2.34747	3.78346	5.43241	0.267517	
0.114818	-367.616	556.992	-23.5629	2.44528	3.32148	4.71766	0.265501	
0.11981	-367.515	556.873	-23.7491	2.54309	3.55059	5.15805	0.231137	
0.124802	-367.772	557.045	-23.3675	2.6409	2.97021	4.21261	0.232293	
0.129794	-367.874	557.166	-23.1824	2.73871	3.39721	4.93209	0.210103	
0.134786	-367.619	556.995	-23.5773	2.83652	2.63068	3.69692	0.207263	
0.139778	-367.519	556.871	-23.7522	2.93434	3.27168	4.74609	0.194237	
0.14477	-367.777	557.04	-23.3545	3.03215	2.41096	3.31888	0.190394	
0.149762	-367.871	557.166	-23.1697	3.12996	3.0895	4.50624	0.187007	
0.154754	-367.617	556.994	-23.5575	3.22777	2.21198	3.03404	0.179681	
0.159747	-367.525	556.872	-23.7514	3.32558	2.95127	4.31004	0.177963	
0.164739	-367.781	557.048	-23.3732	3.42339	2.02238	2.78159	0.168653	
0.169731	-367.877	557.166	-23.1944	3.5212	2.82604	4.14696	0.172153	
0.174723	-367.622	556.993	-23.5805	3.61901	1.86349	2.52421	0.162624	
0.179715	-367.527	556.872	-23.7611	3.71683	2.71546	3.96013	0.159775	
0.184707	-367.786	557.048	-23.3687	3.81464	1.73667	2.3161	0.155919	
0.189699	-367.875	557.164	-23.1762	3.91245	2.59366	3.7914	0.152123	
0.194691	-367.613	556.988	-23.554	4.01026	1.66818	2.21769	0.148414	
0.199683	-367.522	556.864	-23.7468	4.10807	2.4748	3.62367	0.142969	
0.204675	-367.782	557.041	-23.3741	4.20588	1.55288	2.07611	0.13543	
0.209667	-367.877	557.171	-23.1901	4.30369	2.35653	3.44458	0.140581	
0.214659	-367.614	556.99	-23.5786	4.4015	1.49477	1.99943	0.131572	
0.219652	-367.52	556.864	-23.7576	4.49931	2.24996	3.30017	0.133139	
0.224644	-367.784	557.044	-23.3657	4.59713	1.46863	1.9671	0.127982	
0.229636	-367.873	557.172	-23.1776	4.69494	2.14788	3.12323	0.132776	
0.234628	-367.616	556.99	-23.5642	4.79275	1.43344	1.91104	0.127346	
0.23962	-367.529	556.867	-23.7538	4.89056	2.03848	2.95963	0.128645	
0.244612	-367.778	557.049	-23.3736	4.98837	1.43114	1.92841	0.122156	
0.249604	-367.871	557.161	-23.1914	5.08618	1.94104	2.82375	0.121085	
0.254596	-367.617	556.98	-23.5701	5.18399	1.37776	1.90222	0.115877	
0.259588	-367.52	556.87	-23.7505	5.2818	1.82051	2.64561	0.114372	
0.26458	-367.782	557.046	-23.3671	5.37962	1.38053	1.91005	0.107001	
0.269572	-367.874	557.164	-23.1776	5.47743	1.73377	2.52295	0.108523	
0.274564	-367.609	556.99	-23.5583	5.57524	1.3672	1.91066	0.104723	
0.279556	-367.519	556.863	-23.751	5.67305	1.63459	2.36343	0.0986989	
0.284549	-367.787	557.04	-23.3738	5.77086	1.3601	1.90271	0.100162	
0.289541	-367.88	557.168	-23.1913	5.86867	1.55366	2.2363	0.097191	
0.294533	-367.617	556.993	-23.5668	5.96648	1.37282	1.93854	0.100179	
0.299525	-367.528	556.868	-23.7454	6.06429	1.43743	2.07851	0.0914863	
0.304517	-367.779	557.043	-23.3623	6.1621	1.36025	1.95081	0.0933077	
0.309509	-367.866	557.17	-23.1776	6.25992	1.3609	1.95409	0.0930297	
0.314501	-367.615	556.992	-23.5615	6.35773	1.3569	1.95859	0.0909758	
0.319493	-367.522	556.869	-23.7526	6.45554	1.28151	1.83002	0.0911036	
0.324485	-367.786	557.049	-23.3864	6.55335	1.35838	1.95733	0.0913028	
0.329477	-367.88	557.168	-23.1967	6.65116	1.20727	1.70438	0.0894318	
0.334469	-367.614	556.992	-23.5666	6.74897	1.3609	1.96182	0.0903089	
0.339461	-367.519	556.866	-23.7531	6.84678	1.14119	1.5967	0.0867094	
0.344454	-367.776	557.049	-23.3655	6.94459	1.3524	1.9641	0.0866743	
0.349446	-367.861	557.174	-23.1757	7.04241	1.05675	1.47768	0.0852006	
0.354438	-367.605	556.989	-23.5551	7.14022	1.337	1.95624	0.0852328	
0.35943	-367.517	556.865	-23.7478	7.23803	0.997514	1.39111	0.0755947	
0.364422	-367.776	557.041	-23.3808	7.33584	1.31909	1.93757	0.0812611	
0.369414	-367.868	557.172	-23.1923	7.43365	0.944857	1.30667	0.0766124	
0.374406	-367.6	556.997	-23.5633	7.53146	1.31291	1.91962	0.0794287	
0.379398	-367.514	556.866	-23.7416	7.62927	0.900601	1.22881	0.0769746	
0.38439	-367.791	557.045	-23.3641	7.72708	1.29324	1.88957	0.0796129	
0.389382	-367.874	557.169	-23.1874	7.82489	0.864283	1.17219	0.0758863	
0.394374	-367.61	556.989	-23.5641	7.92271	1.26736	1.85929	0.0788697	
0.399366	-367.532	556.865	-23.7548	8.02052	0.829289	1.12841	0.0714962	
0.404358	-367.793	557.038	-23.3898	8.11833	1.23795	1.82514	0.072867	
0.409351	-367.874	557.164	-23.194	8.21614	0.79241	1.07925	0.0690432	
0.414343	-367.613	556.981	-23.5579	8.31395	1.22084	1.79634	0.0698944	
0.419335	-367.526	556.851	-23.7485	8.41176	0.768958	1.0406	0.0686689	
0.424327	-367.783	557.039	-23.3715	8.50957	1.19187	1.75341	0.0670708	
0.429319	-367.866	557.173	-23.1777	8.60738	0.764254	1.03346	0.0672371	
0.434311	-367.6	557.001	-23.5523	8.7052	1.157	1.7015	0.0677139	
0.439303	-367.514	556.864	-23.7465	8.80301	0.762132	1.03413	0.0668704	
0.444295	-367.783	557.036	-23.3832	8.90082	1.12664	1.65263	0.066669	
0.449287	-367.871	557.171	-23.1916	8.99863	0.751565	1.02596	0.0647831	
0.454279	-367.603	556.991	-23.5576	9.09644	1.09195	1.60196	0.0663347	
0.459271	-367.518	556.855	-23.7472	9.19425	0.758927	1.04496	0.0636945	
0.464263	-367.787	557.035	-23.3696	9.29206	1.05444	1.543	0.0642258	
0.469256	-367.876	557.167	-23.1778	9.38987	0.766476	1.0615	0.0616099	
0.474248	-367.608	556.988	-23.5461	9.48768	1.01118	1.47603	0.0619897	
0.47924	-367.521	556.861	-23.7402	9.5855	0.776645	1.08145	0.0612152	
0.484232	-367.789	557.037	-23.3823	9.68331	0.974261	1.41994	0.0606874	
0.489224	-367.876	557.166	-23.1902	9.78112	0.781765	1.10221	0.0597288	
0.494216	-367.609	556.986	-23.5505	9.87893	0.934691	1.35879	0.0587104	
0.499208	-367.516	556.863	-23.7407	9.97674	0.791349	1.12216	0.0575738	
0.5042	-367.781	557.052	-23.3831	10.0746	0.893156	1.29434	0.0582283	
0.509192	-367.873	557.175	-23.1806	10.1724	0.806036	1.14887	0.0565729	
0.514184	-367.604	556.99	-23.535	10.2702	0.849559	1.22487	0.057454	
0.519176	-367.512	556.867	-23.7495	10.368	0.816381	1.17106	0.0551991	
0.524168	-367.779	557.053	-23.4034	10.4658	0.815323	1.16657	0.0566077	
0.52916	-367.869	557.177	-23.1992	10.5636	0.825657	1.18731	0.0563924	
0.534153	-367.607	556.992	-23.5439	10.6614	0.772487	1.10316	0.0557123	
0.539145	-367.527	556.867	-23.7421	10.7592	0.833119	1.20373	0.0534552	
0.544137	-367.79	557.047	-23.3859	10.857	0.737081	1.04225	0.0542332	
0.549129	-367.874	557.169	-23.1802	10.9549	0.839719	1.22104	0.0545554	
0.554121	-367.607	556.984	-23.5359	11.0527	0.696948	0.981848	0.0528686	
0.559113	-367.523	556.862	-23.748	11.1505	0.844541	1.22913	0.0534381	
0.564105	-367.793	557.051	-23.3945	11.2483	0.662255	0.925887	0.0522191	
0.569097	-367.876	557.179	-23.1939	11.3461	0.848841	1.23743	0.0530192	
0.574089	-367.608	556.998	-23.545	11.4439	0.63607	0.87893	0.0517728	
0.579081	-367.52	556.872	-23.737	11.5417	0.846921	1.23804	0.0528607	
0.584073	-367.792	557.051	-23.3853	11.6395	0.60228	0.829933	0.0509034	
0.589065	-367.876	557.169	-23.1835	11.7373	0.847709	1.23862	0.0513802	
0.594058	-367.603	556.985	-23.5392	11.8352	0.581728	0.792425	0.0501198	
0.59905	-367.528	556.864	-23.7479	11.933	0.840398	1.23389	0.049821	
0.604042	-367.799	557.043	-23.4028	12.0308	0.55704	0.756717	0.0486102	
0.609034	-367.879	557.172	-23.1958	12.1286	0.832772	1.22314	0.0486783	
0.614026	-367.602	556.992	-23.543	12.2264	0.542355	0.733051	0.0471798	
0.619018	-367.515	556.858	-23.7424	12.3242	0.826008	1.21248	0.048558	
0.62401	-367.791	557.04	-23.3887	12.422	0.528293	0.712456	0.0458404	
0.629002	-367.874	557.166	-23.1845	12.5198	0.811864	1.19342	0.0476171	
0.633994	-367.599	556.981	-23.528	12.6176	0.521967	0.702643	0.0457428	
0.638986	-367.519	556.865	-23.7422	12.7155	0.80144	1.17501	0.0467521	
0.643978	-367.794	557.053	-23.4103	12.8133	0.517208	0.699289	0.0450085	
0.64897	-367.882	557.173	-23.2023	12.9111	0.783883	1.15034	0.0452974	
0.653962	-367.611	556.989	-23.5332	13.0089	0.517745	0.701209	0.0448506	
0.658955	-367.52	556.86	-23.7394	13.1067	0.766949	1.12454	0.0459717	
0.663947	-367.792	557.049	-23.3987	13.2045	0.520484	0.709452	0.0437053	
0.668939	-367.881	557.176	-23.194	13.3023	0.748194	1.09367	0.0448987	
0.673931	-367.603	556.987	-23.5335	13.4001	0.523913	0.720781	0.0428837	
0.678923	-367.516	556.861	-23.7338	13.4979	0.727336	1.06345	0.0441962	
0.683915	-367.791	557.037	-23.4019	13.5958	0.53431	0.739662	0.0429396	
0.688907	-367.869	557.17	-23.201	13.6936	0.703755	1.02573	0.0433565	
0.693899	-367.601	556.99	-23.5339	13.7914	0.544021	0.758589	0.0426847	
0.698891	-367.525	556.859	-23.7287	13.8892	0.680891	0.98905	0.0427363	
0.703883	-367.792	557.044	-23.3851	13.987	0.555103	0.781046	0.0422611	
0.708875	-367.876	557.17	-23.186	14.0848	0.656476	0.9517	0.042217	
0.713867	-367.611	556.988	-23.5283	14.1826	0.565242	0.799826	0.0419027	
0.71886	-367.531	556.867	-23.7363	14.2804	0.63124	0.910121	0.0423879	
0.723852	-367.795	557.057	-23.4066	14.3782	0.57649	0.820428	0.0408255	
0.728844	-367.873	557.183	-23.2037	14.4761	0.604519	0.870802	0.0415428	
0.733836	-367.609	556.997	-23.5316	14.5739	0.58685	0.841201	0.0403314	
0.738828	-367.526	556.863	-23.7262	14.6717	0.580165	0.829928	0.0404037	
0.74382	-367.799	557.045	-23.3904	14.7695	0.596267	0.858066	0.0399937	
0.748812	-367.876	557.177	-23.1928	14.8673	0.553845	0.787123	0.0398371	
0.753804	-367.595	556.992	-23.5343	14.9651	0.605632	0.875051	0.0394938	
0.758796	-367.518	556.861	-23.7453	15.0629	0.530304	0.750096	0.0394965	
0.763788	-367.789	557.042	-23.4094	15.1607	0.612809	0.889132	0.0392415	
0.76878	-367.87	557.169	-23.1978	15.2585	0.506244	0.709621	0.0390641	
0.773772	-367.604	556.987	-23.5277	15.3564	0.618359	0.899379	0.0386332	
0.778764	-367.52	556.857	-23.7254	15.4542	0.483997	0.674471	0.0382453	
0.783757	-367.787	557.037	-23.3909	15.552	0.623542	0.908998	0.0383321	
0.788749	-367.867	557.177	-23.1941	15.6498	0.462801	0.641072	0.0370775	
0.793741	-367.601	557	-23.5296	15.7476	0.625852	0.914356	0.0379272	
0.798733	-367.52	556.861	-23.7306	15.8454	0.443587	0.60929	0.0367592	
0.803725	-367.789	557.037	-23.4018	15.9432	0.626879	0.917526	0.0375971	
0.808717	-367.872	557.171	-23.1962	16.041	0.428541	0.584011	0.0364683	
0.813709	-367.602	556.992	-23.5194	16.1388	0.626804	0.918033	0.0369195	
0.818701	-367.527	556.863	-23.7227	16.2367	0.414404	0.56095	0.0358598	
0.823693	-367.798	557.043	-23.391	16.3345	0.624176	0.91487	0.0367747	
0.828685	-367.871	557.178	-23.1893	16.4323	0.404826	0.546146	0.0359463	
0.833677	-367.596	556.997	-23.526	16.5301	0.619494	0.908168	0.0365555	
0.838669	-367.523	556.854	-23.7291	16.6279	0.397249	0.534718	0.0347883	
0.843661	-367.798	557.034	-23.4006	16.7257	0.612873	0.898597	0.0361365	
0.848654	-367.877	557.174	-23.1951	16.8235	0.393773	0.529893	0.034859	
0.853646	-367.604	556.998	-23.518	16.9213	0.604494	0.886866	0.0355188	
0.858638	-367.523	556.865	-23.7246	17.0191	0.392673	0.530005	0.0343386	
0.86363	-367.789	557.042	-23.3953	17.117	0.594542	0.871247	0.034513	
0.868622	-367.87	557.166	-23.1885	17.2148	0.394604	0.534276	0.0345114	
0.873614	-367.606	556.988	-23.5182	17.3126	0.582846	0.85373	0.0349461	
0.878606	-367.529	556.865	-23.7299	17.4104	0.398903	0.544947	0.0336072	
0.883598	-367.794	557.049	-23.4076	17.5082	0.569718	0.833454	0.034638	
0.88859	-367.872	557.175	-23.2007	17.606	0.404457	0.55613	0.0334603	
0.893582	-367.607	556.993	-23.5183	17.7038	0.555669	0.811268	0.0339707	
0.898574	-367.522	556.859	-23.7225	17.8016	0.412602	0.571812	0.0330835	
0.903566	-367.79	557.034	-23.4	17.8994	0.539385	0.786963	0.0335589	
0.908559	-367.874	557.171	-23.192	17.9973	0.421597	0.588272	0.0325421	
0.913551	-367.603	556.99	-23.5162	18.0951	0.522874	0.760886	0.0329985	
0.918543	-367.525	556.854	-23.7236	18.1929	0.430728	0.605997	0.0325527	
0.923535	-367.79	557.034	-23.4041	18.2907	0.505926	0.733393	0.0323615	
0.928527	-367.874	557.168	-23.1977	18.3885	0.440848	0.624299	0.0318774	
0.933519	-367.609	556.983	-23.5162	18.4863	0.487045	0.704363	0.0321689	
0.938511	-367.522	556.851	-23.7216	18.5841	0.45069	0.642563	0.0317111	
0.943503	-367.79	557.039	-23.4031	18.6819	0.469681	0.674792	0.0320386	
0.948495	-367.874	557.171	-23.1998	18.7797	0.459921	0.659321	0.0314472	
0.953487	-367.602	556.989	-23.5233	18.8776	0.450748	0.645163	0.0313707	
0.958479	-367.521	556.856	-23.727	18.9754	0.469049	0.675625	0.0315784	
0.963471	-367.8	557.04	-23.4041	19.0732	0.432274	0.614711	0.0308754	
0.968463	-367.881	557.174	-23.2016	19.171	0.478026	0.690411	0.0315355	
0.973456	-367.61	556.987	-23.5206	19.2688	0.413959	0.584594	0.0308392	
0.978448	-367.532	556.847	-23.7196	19.3666	0.484413	0.703144	0.0312145	
0.98344	-367.798	557.028	-23.4	19.4644	0.396884	0.556693	0.0303932	
0.988432	-367.874	557.172	-23.1966	19.5622	0.49104	0.714006	0.0307481	
0.993424	-367.603	556.994	-23.5153	19.66	0.380804	0.529146	0.0300429	
0.998416	-367.527	556.862	-23.733	19.7579	0.494972	0.722187	0.030498	
1.00341	-367.787	557.047	-23.4225	19.8557	0.365424	0.50427	0.0297825	
1.0084	-367.855	557.176	-23.2055	19.9535	0.498877	0.728896	0.0301962	
1.01339	-367.597	556.989	-23.5144	20.0513	0.352207	0.482038	0.0292379	
1.01838	-367.525	556.855	-23.7187	20.1491	0.500419	0.732061	0.0296952	
1.02338	-367.792	557.037	-23.409	20.2469	0.340304	0.462642	0.0290853	
1.02837	-367.872	557.174	-23.2041	20.3447	0.500589	0.73403	0.0295343	
1.03336	-367.607	556.994	-23.5128	20.4425	0.331438	0.447915	0.0287544	
1.03835	-367.532	556.858	-23.7255	20.5403	0.499485	0.732484	0.0291173	
1.04334	-367.799	557.042	-23.4183	20.6382	0.324494	0.436147	0.0287298	
1.04834	-367.873	557.178	-23.2082	20.736	0.49693	0.72887	0.0288715	
1.05333	-367.604	556.993	-23.5136	20.8338	0.319507	0.429293	0.0283681	
1.05832	-367.531	556.849	-23.7142	20.9316	0.492888	0.722963	0.0290943	
1.06331	-367.798	557.031	-23.3966	21.0294	0.317312	0.427155	0.0279309	
1.06831	-367.872	557.178	-23.1915	21.1272	0.48706	0.714188	0.0287725	
1.0733	-367.61	557.001	-23.5096	21.225	0.317424	0.428841	0.0279874	
1.07829	-367.537	556.859	-23.7255	21.3228	0.479712	0.703363	0.0280869	
1.08328	-367.794	557.034	-23.4229	21.4206	0.32015	0.434558	0.0278619	
1.08827	-367.872	557.173	-23.2103	21.5185	0.471519	0.690193	0.027786	
1.09327	-367.618	556.994	-23.5061	21.6163	0.324649	0.443202	0.027206	
1.09826	-367.531	556.86	-23.7081	21.7141	0.461859	0.674936	0.0277045	
1.10325	-367.788	557.041	-23.4041	21.8119	0.330159	0.455208	0.0272624	
1.10824	-367.867	557.174	-23.1951	21.9097	0.450545	0.658094	0.0275972	
1.11323	-367.601	556.994	-23.5065	22.0075	0.337813	0.468452	0.0265681	
1.11823	-367.522	556.856	-23.7298	22.1053	0.43925	0.639105	0.0275187	
1.12322	-367.783	557.034	-23.421	22.2031	0.345613	0.483557	0.0264971	
1.12821	-367.862	557.171	-23.2015	22.301	0.426174	0.618884	0.0270688	
1.1332	-367.602	556.996	-23.5017	22.3988	0.354183	0.499406	0.0266569	
1.13819	-367.526	556.856	-23.7108	22.4966	0.413163	0.597334	0.026638	
1.14319	-367.79	557.031	-23.4071	22.5944	0.363493	0.515191	0.0265117	
1.14818	-367.864	557.172	-23.2001	22.6922	0.398935	0.574536	0.0262204	
1.15317	-367.596	556.992	-23.5129	22.79	0.371864	0.530843	0.0263166	
1.15816	-367.517	556.848	-23.73	22.8878	0.384431	0.55166	0.0262871	
1.16315	-367.789	557.029	-23.4253	22.9856	0.381059	0.545882	0.0258949	
1.16815	-367.871	557.169	-23.2108	23.0834	0.370039	0.527577	0.026294	
1.17314	-367.607	556.983	-23.505	23.1813	0.388832	0.560174	0.0258064	
1.17813	-367.532	556.845	-23.7067	23.2791	0.354881	0.50374	0.02606	
1.18312	-367.792	557.039	-23.4095	23.3769	0.396236	0.573146	0.0258772	
1.18812	-367.869	557.182	-23.2022	23.4747	0.341082	0.480889	0.0254236	
1.19311	-367.602	556.993	-23.5006	23.5725	0.403005	0.584584	0.0256322	
1.1981	-367.527	556.848	-23.7202	23.6703	0.32718	0.457577	0.0249982	
1.20309	-367.794	557.026	-23.4286	23.7681	0.408121	0.594228	0.0253127	
1.20808	-367.867	557.176	-23.2158	23.8659	0.31411	0.436512	0.0251276	
1.21308	-367.611	557.002	-23.5093	23.9637	0.412855	0.602255	0.0251146	
1.21807	-367.546	556.856	-23.7137	24.0616	0.30259	0.416668	0.0249913	
1.22306	-367.804	557.034	-23.415	24.1594	0.415948	0.60796	0.0247719	
1.22805	-367.87	557.175	-23.2102	24.2572	0.291354	0.399197	0.0246318	
1.23304	-367.612	556.985	-23.5091	24.355	0.418031	0.611987	0.0248961	
1.23804	-367.538	556.842	-23.72	24.4528	0.283221	0.384478	0.0242907	
1.24303	-367.788	557.037	-23.4215	24.5506	0.418944	0.613726	0.0247199	
1.24802	-367.864	557.174	-23.2106	24.6484	0.275752	0.372831	0.0239436	
1.25301	-367.608	556.986	-23.5027	24.7462	0.418155	0.613361	0.0245178	
1.258	-367.534	556.847	-23.7031	24.844	0.271152	0.364963	0.0236731	
1.263	-367.791	557.023	-23.4127	24.9419	0.416713	0.610604	0.0241958	
1.26799	-367.868	557.17	-23.2134	25.0397	0.267911	0.360367	0.0241532	
1.27298	-367.612	556.997	-23.5032	25.1375	0.413393	0.605933	0.0238659	
1.27797	-367.532	556.847	-23.7148	25.2353	0.266136	0.360396	0.0223115	
1.28296	-367.79	557.026	-23.4309	25.3331	0.409346	0.600571	0.0251436	
1.28796	-367.866	557.184	-23.2155	25.4309	0.267927	0.361974	0.0238311	
1.29295	-367.613	557.007	-23.5043	25.5287	0.403484	0.591579	0.024008	
1.29794	-367.542	556.852	-23.7106	25.6265	0.270754	0.367871	0.0231168	
1.30293	-367.799	557.031	-23.4191	25.7243	0.396874	0.581064	0.0235122	
1.30792	-367.869	557.177	-23.2151	25.8222	0.275236	0.376118	0.0233687	
1.31292	-367.612	556.996	-23.5082	25.92	0.389175	0.56891	0.0234877	
1.31791	-367.546	556.852	-23.7214	26.0178	0.280589	0.387221	0.0230453	
1.3229	-367.795	557.034	-23.4299	26.1156	0.380317	0.554975	0.0233827	
1.32789	-367.866	557.178	-23.2167	26.2134	0.287411	0.399232	0.0227156	
1.33289	-367.622	556.997	-23.5034	26.3112	0.37078	0.539709	0.0232601	
1.33788	-367.545	556.846	-23.7105	26.409	0.294985	0.412629	0.0226698	
1.34287	-367.792	557.024	-23.4219	26.5068	0.360508	0.523235	0.0229281	
1.34786	-367.866	557.174	-23.2074	26.6046	0.302521	0.426584	0.0224011	
1.35285	-367.608	557.003	-23.4979	26.7025	0.34943	0.505412	0.0227292	
1.35785	-367.535	556.854	-23.7218	26.8003	0.310789	0.440849	0.0224724	
1.36284	-367.791	557.023	-23.4336	26.8981	0.33764	0.486266	0.0228261	
1.36783	-367.858	557.17	-23.2093	26.9959	0.318772	0.455061	0.0223423	
1.37282	-367.611	556.993	-23.4913	27.0937	0.326014	0.46715	0.0221814	
1.37781	-367.542	556.847	-23.7039	27.1915	0.326156	0.468313	0.0222252	
1.38281	-367.79	557.027	-23.4209	27.2893	0.313932	0.447775	0.0221678	
1.3878	-367.868	557.169	-23.2135	27.3871	0.333508	0.480778	0.02218	
1.39279	-367.61	556.998	-23.5031	27.4849	0.302053	0.427829	0.022125	
1.39778	-367.535	556.858	-23.7236	27.5828	0.340186	0.49254	0.0218365	
1.40277	-367.794	557.03	-23.441	27.6806	0.28997	0.408357	0.0218185	
1.40777	-367.869	557.175	-23.2203	27.7784	0.346075	0.502621	0.022152	
1.41276	-367.613	557	-23.499	27.8762	0.278724	0.38968	0.0214083	
1.41775	-367.533	556.859	-23.7144	27.974	0.351217	0.511317	0.0220221	
1.42274	-367.785	557.036	-23.4335	28.0718	0.268159	0.372332	0.0213174	
1.42773	-367.86	557.176	-23.2119	28.1696	0.355112	0.518514	0.0216463	
1.43273	-367.607	556.998	-23.4912	28.2674	0.258376	0.355888	0.021299	
1.43772	-367.535	556.851	-23.713	28.3652	0.358369	0.523841	0.0214517	
1.44271	-367.793	557.023	-23.4376	28.4631	0.249968	0.341677	0.021189	
1.4477	-367.869	557.165	-23.2223	28.5609	0.36023	0.527745	0.0212319	
1.4527	-367.615	556.993	-23.493	28.6587	0.242808	0.329777	0.0209117	
1.45769	-367.54	556.859	-23.6961	28.7565	0.36133	0.529605	0.0213279	
1.46268	-367.789	557.036	-23.416	28.8543	0.237268	0.320682	0.0208466	
1.46767	-367.856	557.18	-23.2093	28.9521	0.361049	0.529738	0.021235	
1.47266	-367.615	557.005	-23.4965	29.0499	0.233482	0.314254	0.0207202	
1.47766	-367.547	556.857	-23.7176	29.1477	0.359801	0.528102	0.0212731	
1.48265	-367.79	557.031	-23.4395	29.2455	0.231513	0.311219	0.0207207	
1.48764	-367.866	557.174	-23.2128	29.3434	0.357502	0.524334	0.0209193	
1.49263	-367.62	556.999	-23.4864	29.4412	0.23099	0.311598	0.0202137	
1.49762	-367.541	556.858	-23.7076	29.539	0.353929	0.518892	0.0205613	
1.50262	-367.787	557.031	-23.4319	29.6368	0.232694	0.315147	0.0205721	
1.50761	-367.86	557.177	-23.215	29.7346	0.349287	0.511917	0.0204314	
1.5126	-367.608	557	-23.4938	29.8324	0.235585	0.320487	0.0202365	
1.51759	-367.537	556.85	-23.7136	29.9302	0.343883	0.503157	0.0207002	
1.52258	-367.786	557.021	-23.4409	30.028	0.239797	0.328453	0.0199797	
1.52758	-367.864	557.17	-23.2167	30.1258	0.337401	0.493145	0.0206308	
1.53257	-367.621	556.996	-23.4849	30.2237	0.244944	0.338283	0.0197879	
1.53756	-367.544	556.851	-23.702	30.3215	0.329936	0.481159	0.0204192	
1.54255	-367.787	557.026	-23.4284	30.4193	0.251595	0.349888	0.0197463	
1.54754	-367.855	557.167	-23.2228	30.5171	0.321673	0.468078	0.0200988	
1.55254	-367.614	556.993	-23.5022	30.6149	0.258365	0.362146	0.0196967	
1.55753	-367.545	556.852	-23.717	30.7127	0.31282	0.453978	0.0198672	
1.56252	-367.79	557.029	-23.4442	30.8105	0.265754	0.374792	0.0196324	
1.56751	-367.865	557.179	-23.2231	30.9083	0.3036	0.438581	0.0199122	
1.57251	-367.614	557.011	-23.4801	31.0061	0.272757	0.387457	0.0196101	
1.5775	-367.539	556.856	-23.6947	31.104	0.293647	0.422765	0.0196836	
1.58249	-367.785	557.024	-23.4374	31.2018	0.28009	0.400164	0.0193848	
1.58748	-367.862	557.173	-23.2268	31.2996	0.283771	0.406144	0.0197878	
1.59247	-367.626	556.997	-23.4932	31.3974	0.286997	0.412119	0.0193283	
1.59747	-367.556	556.855	-23.7098	31.4952	0.273242	0.389354	0.0195241	
1.60246	-367.799	557.032	-23.4438	31.593	0.293462	0.423391	0.0193507	
1.60745	-367.865	557.176	-23.222	31.6908	0.263038	0.372604	0.0191449	
1.61244	-367.618	557.002	-23.483	31.7886	0.299657	0.433632	0.0192688	
1.61743	-367.545	556.852	-23.7007	31.8864	0.252944	0.355913	0.0191447	
1.62243	-367.786	557.025	-23.4446	31.9843	0.304963	0.443043	0.0191809	
1.62742	-367.857	557.172	-23.225	32.0821	0.243438	0.339802	0.0189245	
1.63241	-367.614	557.001	-23.4801	32.1799	0.309647	0.450865	0.0190288	
1.6374	-367.548	556.85	-23.708	32.2777	0.234468	0.324729	0.018846	
1.64239	-367.788	557.024	-23.4518	32.3755	0.31334	0.457187	0.0191851	
1.64739	-367.858	557.177	-23.2169	32.4733	0.22631	0.311316	0.0184932	
1.65238	-367.62	556.997	-23.471	32.5711	0.316221	0.46228	0.0190123	
1.65737	-367.55	556.842	-23.6989	32.6689	0.219386	0.299193	0.0184867	
1.66236	-367.791	557.023	-23.4362	32.7667	0.318015	0.465775	0.0187998	
1.66735	-367.862	557.179	-23.2234	32.8646	0.213339	0.289469	0.0183852	
1.67235	-367.62	557.012	-23.493	32.9624	0.319062	0.467716	0.0187023	
1.67734	-367.546	556.86	-23.7037	33.0602	0.209031	0.2821	0.0182507	
1.68233	-367.777	557.023	-23.4469	33.158	0.318895	0.467849	0.0187654	
1.68732	-367.85	557.176	-23.2308	33.2558	0.205984	0.277457	0.0182584	
1.69232	-367.613	557.009	-23.4801	33.3536	0.317883	0.466432	0.0185295	
1.69731	-367.544	556.864	-23.6919	33.4514	0.204748	0.275428	0.0181226	
1.7023	-367.787	557.031	-23.4331	33.5492	0.315994	0.463416	0.0186283	
1.70729	-367.858	557.173	-23.2181	33.647	0.204875	0.276138	0.0179543	
1.71228	-367.621	557.001	-23.4884	33.7449	0.312986	0.458865	0.0183755	
1.71728	-367.546	556.857	-23.7159	33.8427	0.206648	0.27968	0.0178597	
1.72227	-367.78	557.031	-23.46	33.9405	0.309017	0.45277	0.0184691	
1.72726	-367.855	557.181	-23.231	34.0383	0.209712	0.285411	0.0178542	
1.73225	-367.622	557.007	-23.4706	34.1361	0.304294	0.445182	0.0181699	
1.73724	-367.552	556.849	-23.6916	34.2339	0.213911	0.293067	0.0174662	
1.74224	-367.784	557.02	-23.4434	34.3317	0.298679	0.436259	0.0183909	
1.74723	-367.857	557.177	-23.231	34.4295	0.218846	0.30246	0.017679	
1.75222	-367.619	557.006	-23.4942	34.5273	0.292175	0.425901	0.0179738	
1.75721	-367.545	556.856	-23.7175	34.6252	0.224603	0.312834	0.0176014	
1.7622	-367.781	557.03	-23.4586	34.723	0.285048	0.4145	0.0177712	
1.7672	-367.853	557.18	-23.2324	34.8208	0.231025	0.324192	0.0177552	
1.77219	-367.625	557.003	-23.4819	34.9186	0.277435	0.401978	0.0175658	
1.77718	-367.557	556.854	-23.7032	35.0164	0.237651	0.335727	0.0174847	
1.78217	-367.792	557.026	-23.4563	35.1142	0.269207	0.388571	0.0176025	
1.78716	-367.857	557.176	-23.2346	35.212	0.244384	0.347505	0.0176178	
1.79216	-367.619	557.009	-23.4877	35.3098	0.260569	0.374733	0.0175613	
1.79715	-367.547	556.851	-23.7149	35.4076	0.250945	0.358762	0.0173536	
1.80214	-367.784	557.02	-23.4589	35.5055	0.251674	0.360294	0.0174119	
1.80713	-367.854	557.18	-23.2241	35.6033	0.257344	0.369763	0.017329	
1.81212	-367.61	557.013	-23.4674	35.7011	0.242802	0.345348	0.017366	
1.81712	-367.544	556.859	-23.6938	35.7989	0.263213	0.380013	0.0173658	
1.82211	-367.784	557.027	-23.4553	35.8967	0.233796	0.330644	0.0170922	
1.8271	-367.85	557.178	-23.2414	35.9945	0.26883	0.389392	0.0172532	
1.83209	-367.612	557.008	-23.4917	36.0923	0.22507	0.315995	0.0170169	
1.83709	-367.539	556.859	-23.7128	36.1901	0.273607	0.397862	0.0171307	
1.84208	-367.77	557.031	-23.4589	36.2879	0.216639	0.302102	0.0169192	
1.84707	-367.843	557.183	-23.2252	36.3858	0.277939	0.405006	0.0170481	
1.85206	-367.62	557.009	-23.4653	36.4836	0.208809	0.289046	0.0169519	
1.85705	-367.55	556.853	-23.6935	36.5814	0.28136	0.411044	0.0168561	
1.86205	-367.773	557.022	-23.4501	36.6792	0.201889	0.277292	0.0166344	
1.86704	-367.843	557.177	-23.2276	36.777	0.284026	0.415294	0.0169641	
1.87203	-367.614	557.012	-23.467	36.8748	0.195758	0.267122	0.0166733	
1.87702	-367.541	556.853	-23.6792	36.9726	0.285842	0.418525	0.0170143	
1.88201	-367.772	557.012	-23.4315	37.0704	0.190838	0.258839	0.0163625	
1.88701	-367.849	557.169	-23.2013	37.1683	0.286818	0.420232	0.0171105	
1.892	-367.614	557.009	-23.4442	37.2661	0.187475	0.252716	0.0165153	
1.89699	-367.542	556.847	-23.681	37.3639	0.286791	0.420667	0.0168206	
1.90198	-367.781	557.005	-23.4479	37.4617	0.18486	0.24896	0.0163673	
1.90697	-367.854	557.151	-23.231	37.5595	0.286017	0.419324	0.0166501	
1.91197	-367.626	556.971	-23.476	37.6573	0.184272	0.247798	0.0162908	
1.91696	-367.564	556.824	-23.6957	37.7551	0.284159	0.416824	0.0166713	
1.92195	-367.799	556.99	-23.4525	37.8529	0.184795	0.249218	0.0161277	
1.92694	-367.872	557.134	-23.2111	37.9507	0.28146	0.412757	0.0166308	
1.93193	-367.647	556.96	-23.4257	38.0486	0.186783	0.252841	0.0159715	
1.93693	-367.58	556.785	-23.6545	38.1464	0.278074	0.407242	0.0165839	
1.94192	-367.83	556.931	-23.4265	38.2442	0.189628	0.258586	0.0160767	
1.94691	-367.921	557.07	-23.1958	38.342	0.273686	0.40056	0.0164944	
1.9519	-367.695	556.891	-23.415	38.4398	0.193856	0.265857	0.0159827	
1.9569	-367.613	556.734	-23.603	38.5376	0.268855	0.392484	0.0163446	
1.96189	-367.833	556.897	-23.3297	38.6354	0.198586	0.274778	0.0160044	
1.96688	-367.905	557.035	-23.0756	38.7332	0.262987	0.383322	0.0160378	
1.97187	-367.665	556.852	-23.2828	38.831	0.204106	0.284552	0.0159044	
1.97686	-367.574	556.679	-23.4881	38.9289	0.256676	0.372939	0.0161835	
1.98186	-367.788	556.825	-23.2341	39.0267	0.209947	0.294969	0.0157694	
1.98685	-367.861	556.957	-22.9915	39.1245	0.249801	0.361892	0.0159091	
1.99184	-367.653	556.758	-23.2315	39.2223	0.216073	0.305692	0.0158452	
1.99683	-367.615	556.567	-23.4581	39.3201	0.242416	0.349891	0.0158331	
2.00182	-367.875	556.689	-23.2067	39.4179	0.222507	0.316355	0.0158245	
2.00682	-367.971	556.787	-22.9494	39.5157	0.234691	0.337428	0.015624	
2.01181	-367.766	556.562	-23.1513	39.6135	0.228576	0.32697	0.015847	
2.0168	-367.715	556.356	-23.3621	39.7113	0.226853	0.324319	0.015583	
2.02179	-367.977	556.468	-23.1011	39.8092	0.23443	0.336999	0.0155773	
2.02678	-368.107	556.55	-22.8453	39.907	0.218872	0.311072	0.0155746	
2.03178	-367.974	556.279	-23.048	40.0048	0.239879	0.34636	0.0157475	
2.03677	-368.002	556.015	-23.2302	40.1026	0.210945	0.29793	0.0154535	
2.04176	-368.325	556.07	-22.9475	40.2004	0.244947	0.354974	0.0156647	
2.04675	-368.469	556.126	-22.6793	40.2982	0.20308	0.284969	0.0154603	
2.05174	-368.265	555.9	-22.8683	40.396	0.249409	0.3626	0.0154809	
2.05674	-368.143	555.732	-23.0257	40.4938	0.195705	0.272491	0.0152643	
2.06173	-368.251	555.926	-22.7228	40.5916	0.253467	0.369312	0.0155362	
2.06672	-368.212	556.105	-22.4345	40.6895	0.188901	0.261017	0.0151595	
2.07171	-367.924	555.94	-22.6062	40.7873	0.256416	0.374687	0.0154972	
2.07671	-367.813	555.768	-22.7729	40.8851	0.182713	0.250658	0.0152431	
2.0817	-368.016	555.896	-22.4894	40.9829	0.258863	0.378788	0.0153965	
2.08669	-368.061	556.011	-22.2194	41.0807	0.177611	0.241736	0.0150505	
2.09168	-367.765	555.842	-22.402	41.1785	0.260558	0.381844	0.0153495	
2.09667	-367.635	555.675	-22.5889	41.2763	0.173464	0.234761	0.0149742	
2.10167	-367.82	555.81	-22.3267	41.3741	0.261494	0.383297	0.0152951	
2.10666	-367.821	555.97	-22.071	41.4719	0.170585	0.229636	0.0149031	
2.11165	-367.522	555.818	-22.2834	41.5698	0.261557	0.38358	0.015238	
2.11664	-367.393	555.647	-22.4891	41.6676	0.168721	0.226906	0.0147595	
2.12163	-367.558	555.794	-22.2174	41.7654	0.260708	0.382529	0.0151279	
2.12663	-367.608	555.914	-21.9365	41.8632	0.168479	0.226279	0.0148796	
2.13162	-367.351	555.723	-22.1182	41.961	0.259071	0.380115	0.0150941	
2.13661	-367.211	555.57	-22.3104	42.0588	0.168962	0.228101	0.0147597	
2.1416	-367.364	555.738	-22.0621	42.1566	0.256735	0.376375	0.0149667	
2.14659	-367.336	555.906	-21.8132	42.2544	0.171051	0.231846	0.0147103	
2.15159	-367.019	555.751	-21.994	42.3522	0.25367	0.371488	0.014954	
2.15658	-366.869	555.6	-22.1795	42.4501	0.173868	0.237448	0.0146567	
2.16157	-367.005	555.768	-21.9212	42.5479	0.249646	0.365273	0.0148976	
2.16656	-367.011	555.925	-21.6478	42.6457	0.178018	0.244633	0.0146612	
2.17155	-366.777	555.738	-21.8195	42.7435	0.245243	0.357814	0.0147721	
2.17655	-366.684	555.544	-22.0106	42.8413	0.182761	0.253021	0.0145523	
2.18154	-366.858	555.685	-21.7656	42.9391	0.239985	0.349558	0.0147881	
2.18653	-366.875	555.847	-21.511	43.0369	0.18777	0.262203	0.0144223	
2.19152	-366.619	555.677	-21.6989	43.1347	0.234182	0.340133	0.0146697	
2.19652	-366.552	555.481	-21.8922	43.2325	0.193391	0.271955	0.0145909	
2.20151	-366.764	555.604	-21.6336	43.3304	0.228017	0.329985	0.014575	
2.2065	-366.84	555.714	-21.3643	43.4282	0.199094	0.282061	0.0144015	
2.21149	-366.633	555.512	-21.5705	43.526	0.221302	0.319005	0.014538	
2.21648	-366.53	555.332	-21.7951	43.6238	0.205044	0.291954	0.0143377	
2.22148	-366.684	555.482	-21.5668	43.7216	0.214354	0.307694	0.0144504	
2.22647	-366.694	555.635	-21.3189	43.8194	0.210706	0.301713	0.0142981	
2.23146	-366.44	555.457	-21.5176	43.9172	0.207146	0.295813	0.0143385	
2.23645	-366.334	555.279	-21.73	44.015	0.216178	0.311023	0.0142979	
2.24144	-366.501	555.42	-21.4733	44.1128	0.199862	0.28391	0.014175	
2.24644	-366.549	555.54	-21.1973	44.2107	0.221345	0.319751	0.0142522	
2.25143	-366.319	555.331	-21.3891	44.3085	0.192735	0.271848	0.0142093	
2.25642	-366.208	555.137	-21.6008	44.4063	0.225963	0.327686	0.0141532	
2.26141	-366.384	555.28	-21.3532	44.5041	0.185693	0.260163	0.0141294	
2.2664	-366.416	555.413	-21.0845	44.6019	0.230121	0.334718	0.0142976	
2.2714	-366.156	555.228	-21.2668	44.6997	0.179235	0.249054	0.014045	
2.27639	-366.036	555.056	-21.4685	44.7975	0.233703	0.340736	0.0140989	
2.28138	-366.216	555.188	-21.2167	44.8953	0.172977	0.238587	0.0138944	
2.28637	-366.275	555.289	-20.9415	44.9931	0.23669	0.345789	0.0140788	
2.29136	-366.071	555.059	-21.1121	45.091	0.167646	0.229424	0.0138708	
2.29636	-366.002	554.855	-21.3102	45.1888	0.238941	0.349545	0.0140663	
2.30135	-366.19	554.994	-21.0739	45.2866	0.162964	0.221661	0.013789	
2.30634	-366.224	555.119	-20.8084	45.3844	0.240455	0.352226	0.013995	
2.31133	-365.984	554.926	-20.991	45.4822	0.159438	0.215514	0.0137122	
2.31633	-365.88	554.745	-21.1992	45.58	0.241206	0.353692	0.0139614	
2.32132	-366.063	554.874	-20.9513	45.6778	0.156982	0.211468	0.0137065	
2.32631	-366.116	554.998	-20.6796	45.7756	0.241234	0.353846	0.0138471	
2.3313	-365.884	554.798	-20.8618	45.8734	0.155594	0.209287	0.0136863	
2.33629	-365.794	554.6	-21.0892	45.9713	0.240543	0.352837	0.0139195	
2.34129	-365.966	554.727	-20.8694	46.0691	0.155442	0.209186	0.0136156	
2.34628	-365.994	554.856	-20.6147	46.1669	0.239073	0.350543	0.0139035	
2.35127	-365.739	554.677	-20.8026	46.2647	0.156597	0.211246	0.013505	
2.35626	-365.635	554.488	-21.0176	46.3625	0.236865	0.347084	0.0137293	
2.36125	-365.826	554.601	-20.783	46.4603	0.158643	0.2151	0.013455	
2.36625	-365.895	554.692	-20.5166	46.5581	0.23392	0.342487	0.014074	
2.37124	-365.683	554.473	-20.6975	46.6559	0.161521	0.220797	0.0129936	
2.37623	-365.564	554.29	-20.8919	46.7537	0.230382	0.336853	0.0134847	
2.38122	-365.721	554.417	-20.6248	46.8516	0.165456	0.2276	0.0131974	
2.38621	-365.781	554.526	-20.3424	46.9494	0.226098	0.33002	0.0135744	
2.39121	-365.595	554.296	-20.5419	47.0472	0.169863	0.235571	0.0132329	
2.3962	-365.543	554.05	-20.7828	47.145	0.221398	0.322223	0.0134854	
2.40119	-365.748	554.129	-20.5688	47.2428	0.17484	0.244268	0.0130784	
2.40618	-365.821	554.219	-20.311	47.3406	0.216025	0.313585	0.0133164	
2.41117	-365.621	553.989	-20.5037	47.4384	0.180236	0.253518	0.0130999	
2.41617	-365.522	553.77	-20.7299	47.5362	0.21024	0.304113	0.0132823	
2.42116	-365.672	553.89	-20.4775	47.634	0.185587	0.262886	0.0131165	
2.42615	-365.691	554.022	-20.1899	47.7319	0.204136	0.294068	0.0132032	
2.43114	-365.44	553.807	-20.3552	47.8297	0.191028	0.272156	0.0129689	
2.43613	-365.346	553.567	-20.5291	47.9275	0.197778	0.283605	0.0130218	
2.44113	-365.564	553.639	-20.2487	48.0253	0.196338	0.28139	0.013003	
2.44612	-365.634	553.707	-19.9648	48.1231	0.19128	0.272619	0.0128985	
2.45111	-365.394	553.471	-20.149	48.2209	0.20135	0.290053	0.0128998	
2.4561	-365.275	553.244	-20.3726	48.3187	0.184662	0.261706	0.012875	
2.4611	-365.436	553.345	-20.1469	48.4165	0.206134	0.298011	0.0129146	
2.46609	-365.478	553.452	-19.8812	48.5143	0.178084	0.250659	0.0127214	
2.47108	-365.244	553.234	-20.0676	48.6122	0.210418	0.305247	0.0128445	
2.47607	-365.136	553.007	-20.2898	48.71	0.171794	0.239949	0.0127215	
2.48106	-365.299	553.116	-20.0522	48.8078	0.214352	0.311789	0.0127499	
2.48606	-365.336	553.227	-19.759	48.9056	0.165904	0.229833	0.0122544	
2.49105	-365.115	552.996	-19.9189	49.0034	0.217565	0.317317	0.0122708	
2.49604	-365.007	552.781	-20.1389	49.1012	0.160223	0.220591	0.0129639	
2.50103	-365.157	552.915	-19.9036	49.199	0.220285	0.321715	0.0132944	
2.50602	-365.182	553.039	-19.6216	49.2968	0.156152	0.212088	0.0125166	
2.51102	-364.924	552.837	-19.791	49.3946	0.222567	0.324933	0.0125938	
2.51601	-364.798	552.64	-19.9973	49.4925	0.151631	0.205524	0.0105189	
2.521	-364.948	552.778	-19.7478	49.5903	0.223608	0.327041	0.0146142	
2.52599	-364.971	552.904	-19.4604	49.6881	0.148294	0.199979	0.0181682	
2.53098	-364.721	552.699	-19.6276	49.7859	0.223212	0.328378	0.0219681	
2.53598	-364.598	552.506	-19.8397	49.8837	0.150933	0.193163	0.0262511	
2.54097	-364.736	552.645	-19.5943	49.9815	0.217595	0.324095	0.0782567	
2.54596	-364.764	552.78	-19.3051	50.0793	0.17712	0.207641	0.147605	
2.55095	-364.536	552.574	-19.4779	50.1771	0.227399	0.333572	0.0539859	
2.55594	-364.402	552.383	-19.6958	50.2749	0.138033	0.19445	0.0211591	
2.56094	-364.536	552.529	-19.4601	50.3728	0.222582	0.329946	0.0245903	
2.56593	-364.554	552.657	-19.1737	50.4706	0.146712	0.197709	0.0225544	
2.57092	-364.309	552.457	-19.3475	50.5684	0.221648	0.325324	0.0191034	
2.57591	-364.177	552.274	-19.5773	50.6662	0.147112	0.202172	0.0150938	
2.58091	-364.3	552.42	-19.3434	50.764	0.218601	0.320184	0.0150413	
2.5859	-364.298	552.565	-19.0649	50.8618	0.15171	0.207264	0.0140913	
2.59089	-364.032	552.385	-19.2462	50.9596	0.215093	0.314417	0.0152749	
2.59588	-363.887	552.195	-19.467	51.0574	0.155045	0.21415	0.0150131	
2.60087	-364.018	552.326	-19.2371	51.1552	0.210862	0.307985	0.0141724	
2.60587	-364.047	552.447	-18.9603	51.2531	0.159574	0.222056	0.013503	
2.61086	-363.815	552.238	-19.1367	51.3509	0.206532	0.300456	0.0140208	
2.61585	-363.697	552.03	-19.3692	51.4487	0.164338	0.230316	0.0137059	
2.62084	-363.849	552.15	-19.1433	51.5465	0.201281	0.292437	0.0138827	
2.62583	-363.887	552.281	-18.8564	51.6443	0.169401	0.239132	0.0136344	
2.63083	-363.647	552.089	-19.0155	51.7421	0.195922	0.28357	0.0134735	
2.63582	-363.525	551.892	-19.2352	51.8399	0.174615	0.248018	0.0136232	
2.64081	-363.663	552.023	-19.0111	51.9377	0.190089	0.274118	0.0133982	
2.6458	-363.683	552.154	-18.7277	52.0356	0.179919	0.25682	0.0133671	
2.65079	-363.457	551.961	-18.8929	52.1334	0.184045	0.264251	0.0132328	
2.65579	-363.338	551.776	-19.1173	52.2312	0.18486	0.265457	0.0133095	
2.66078	-363.476	551.906	-18.894	52.329	0.17803	0.253972	0.0130559	
2.66577	-363.512	552.026	-18.611	52.4268	0.18976	0.273608	0.0133354	
2.67076	-363.286	551.82	-18.777	52.5246	0.171832	0.24367	0.0128793	
2.67575	-363.18	551.617	-18.996	52.6224	0.194306	0.28121	0.0131628	
2.68075	-363.343	551.731	-18.7612	52.7202	0.165806	0.233553	0.0128392	
2.68574	-363.38	551.847	-18.4728	52.818	0.198422	0.288112	0.0131043	
2.69073	-363.158	551.652	-18.6393	52.9159	0.159865	0.22363	0.0127279	
2.69572	-363.044	551.458	-18.8757	53.0137	0.202063	0.294268	0.0131077	
2.70072	-363.184	551.587	-18.6646	53.1115	0.154439	0.214343	0.0127026	
2.70571	-363.221	551.716	-18.3781	53.2093	0.20517	0.299421	0.0130632	
2.7107	-362.997	551.518	-18.5528	53.3071	0.149378	0.205715	0.0127348	
2.71569	-362.886	551.302	-18.7905	53.4049	0.207696	0.303728	0.0129302	
2.72068	-363.036	551.408	-18.5679	53.5027	0.144952	0.198284	0.0125982	
2.72568	-363.085	551.515	-18.2838	53.6005	0.209583	0.306948	0.0130419	
2.73067	-362.867	551.294	-18.4499	53.6983	0.141354	0.191917	0.0125241	
2.73566	-362.754	551.089	-18.6876	53.7962	0.210913	0.309208	0.0128043	
2.74065	-362.894	551.2	-18.4756	53.894	0.138702	0.187465	0.0123749	
2.74564	-362.923	551.309	-18.189	53.9918	0.211519	0.310329	0.0129119	
2.75064	-362.703	551.096	-18.3516	54.0896	0.136972	0.184409	0.0123866	
2.75563	-362.583	550.873	-18.5843	54.1874	0.211575	0.310362	0.012826	
2.76062	-362.715	550.979	-18.3657	54.2852	0.136257	0.183334	0.0123679	
2.76561	-362.747	551.093	-18.0687	54.383	0.210865	0.309378	0.0126765	
2.7706	-362.529	550.877	-18.2336	54.4808	0.136533	0.184133	0.01231	
2.7756	-362.421	550.655	-18.4826	54.5786	0.209443	0.307216	0.0127734	
2.78059	-362.565	550.754	-18.2722	54.6765	0.13792	0.186627	0.0122586	
2.78558	-362.601	550.86	-17.9861	54.7743	0.207555	0.304111	0.0126119	
2.79057	-362.384	550.649	-18.1513	54.8721	0.140133	0.19073	0.0123551	
2.79556	-362.276	550.437	-18.3938	54.9699	0.204909	0.299934	0.0125652	
2.80056	-362.414	550.543	-18.1817	55.0677	0.143149	0.196185	0.0121168	
2.80555	-362.449	550.647	-17.8956	55.1655	0.201735	0.294821	0.0124288	
2.81054	-362.256	550.435	-18.0663	55.2633	0.14684	0.202834	0.0122369	
2.81553	-362.176	550.224	-18.3082	55.3611	0.197948	0.288782	0.0124711	
2.82053	-362.344	550.316	-18.0948	55.4589	0.151088	0.210242	0.0122077	
2.82552	-362.398	550.417	-17.8076	55.5568	0.193745	0.281899	0.0123568	
2.83051	-362.196	550.216	-17.9688	55.6546	0.15583	0.21834	0.0122148	
2.8355	-362.102	550.001	-18.1987	55.7524	0.189045	0.274195	0.0123921	
2.84049	-362.258	550.097	-17.9797	55.8502	0.160626	0.226777	0.0121301	
2.84549	-362.314	550.207	-17.6813	55.948	0.183951	0.265898	0.0122539	
2.85048	-362.106	550.001	-17.8309	56.0458	0.165642	0.235203	0.0121652	
2.85547	-361.989	549.781	-18.0658	56.1436	0.178543	0.257052	0.012198	
2.86046	-362.126	549.879	-17.8493	56.2414	0.170571	0.243627	0.0121246	
2.86545	-362.167	549.978	-17.5642	56.3392	0.172858	0.24778	0.0120803	
2.87045	-361.952	549.757	-17.7318	56.4371	0.175373	0.251823	0.0121555	
2.87544	-361.838	549.532	-17.9713	56.5349	0.167196	0.238217	0.0120856	
2.88043	-361.977	549.616	-17.7617	56.6327	0.179947	0.259544	0.0121594	
2.88542	-362.001	549.708	-17.4754	56.7305	0.161417	0.228644	0.0119953	
2.89041	-361.772	549.488	-17.6476	56.8283	0.184269	0.266714	0.0121179	
2.89541	-361.662	549.265	-17.8983	56.9261	0.1558	0.219096	0.0119756	
2.9004	-361.796	549.356	-17.6959	57.0239	0.188104	0.273189	0.0121172	
2.90539	-361.833	549.435	-17.4193	57.1217	0.150337	0.209919	0.0119026	
2.91038	-361.633	549.199	-17.5895	57.2195	0.19153	0.279048	0.0121146	
2.91537	-361.538	548.952	-17.8305	57.3174	0.145224	0.201231	0.0118208	
2.92037	-361.681	549.016	-17.6225	57.4152	0.194383	0.283872	0.0119777	
2.92536	-361.71	549.103	-17.3413	57.513	0.140557	0.193377	0.0118139	
2.93035	-361.505	548.873	-17.5153	57.6108	0.196814	0.287863	0.0120825	
2.93534	-361.412	548.632	-17.7633	57.7086	0.136599	0.186561	0.0117037	
2.94034	-361.57	548.705	-17.5529	57.8064	0.198496	0.290988	0.012007	
2.94533	-361.621	548.786	-17.2676	57.9042	0.133311	0.180974	0.0116938	
2.95032	-361.424	548.551	-17.4315	58.002	0.199814	0.293026	0.0120218	
2.95531	-361.328	548.309	-17.6718	58.0998	0.130993	0.176878	0.0117243	
2.9603	-361.463	548.396	-17.4518	58.1977	0.200278	0.294078	0.0120778	
2.9653	-361.524	548.462	-17.1676	58.2955	0.129766	0.174484	0.0115694	
2.97029	-361.313	548.224	-17.3185	58.3933	0.200347	0.294017	0.0119694	
2.97528	-361.208	547.992	-17.5483	58.4911	0.129212	0.173776	0.0115119	
2.98027	-361.36	548.067	-17.3341	58.5889	0.199726	0.292946	0.0119239	
2.98526	-361.362	548.169	-17.0107	58.6867	0.129631	0.174792	0.0116546	
2.99026	-361.162	547.921	-17.1866	58.7845	0.198343	0.29094	0.0118508	
2.99525	-361.072	547.646	-17.4252	58.8823	0.13106	0.177481	0.0115778	
3.00024	-361.215	547.689	-17.1874	58.9801	0.19651	0.287867	0.0118657	
3.00523	-361.247	547.753	-16.8683	59.078	0.133317	0.181634	0.0115468	
3.01022	-361.024	547.505	-16.9944	59.1758	0.193947	0.283827	0.0118315	
3.01522	-360.906	547.242	-17.2489	59.2736	0.136445	0.187187	0.0115306	
3.02021	-361.021	547.305	-17.0562	59.3714	0.19084	0.278934	0.0117862	
3.0252	-361.03	547.381	-16.7556	59.4692	0.140101	0.193673	0.0114521	
3.03019	-360.797	547.132	-16.9044	59.567	0.187268	0.273075	0.0117234	
3.03518	-360.668	546.863	-17.1378	59.6648	0.144317	0.200928	0.0115402	
3.04018	-360.778	546.92	-16.916	59.7626	0.183265	0.266508	0.0116553	
3.04517	-360.78	547.001	-16.6101	59.8604	0.148772	0.208691	0.0114868	
3.05016	-360.54	546.759	-16.7753	59.9583	0.178814	0.259201	0.0116442	
3.05515	-360.404	546.509	-17.0192	60.0561	0.153456	0.216773	0.0114159	
3.06014	-360.513	546.57	-16.791	60.1539	0.174027	0.251396	0.0115841	
3.06514	-360.525	546.638	-16.4814	60.2517	0.158211	0.224897	0.011484	
3.07013	-360.294	546.393	-16.6223	60.3495	0.168871	0.242943	0.011547	
3.07512	-360.165	546.121	-16.8571	60.4473	0.162996	0.232943	0.0114997	
3.08011	-360.276	546.178	-16.6317	60.5451	0.163536	0.23411	0.011518	
3.08511	-360.274	546.263	-16.3116	60.6429	0.167525	0.240783	0.0114129	
3.0901	-360.024	546.023	-16.4581	60.7407	0.158131	0.225181	0.0113795	
3.09509	-359.869	545.779	-16.6927	60.8386	0.171902	0.248118	0.0114176	
3.10008	-359.953	545.858	-16.4652	60.9364	0.15275	0.216083	0.0113455	
3.10507	-359.939	545.935	-16.1421	61.0342	0.175971	0.254942	0.011522	
3.11007	-359.688	545.702	-16.2722	61.132	0.1474	0.207116	0.0112994	
3.11506	-359.542	545.461	-16.5061	61.2298	0.179631	0.261172	0.011421	
3.12005	-359.639	545.521	-16.2844	61.3276	0.142243	0.198506	0.0112936	
3.12504	-359.644	545.598	-15.9655	61.4254	0.18297	0.266542	0.0113547	
3.13003	-359.418	545.362	-16.1137	61.5232	0.137623	0.190404	0.0112803	
3.13503	-359.299	545.103	-16.3603	61.621	0.185642	0.271181	0.0113963	
3.14002	-359.444	545.149	-16.1398	61.7189	0.133282	0.183095	0.0111644	
3.14501	-359.504	545.212	-15.8296	61.8167	0.187924	0.274929	0.0114499	
3.15	-359.3	544.981	-15.9825	61.9145	0.12962	0.176871	0.0111643	
3.15499	-359.19	544.743	-16.228	62.0123	0.189627	0.277729	0.0114792	
3.15999	-359.324	544.826	-16.0104	62.1101	0.126831	0.171891	0.0111363	
3.16498	-359.355	544.935	-15.7092	62.2079	0.190706	0.279572	0.0114203	
3.16997	-359.144	544.74	-15.8792	62.3057	0.124679	0.168196	0.0110793	
3.17496	-359.012	544.539	-16.1373	62.4035	0.191217	0.280479	0.0113781	
3.17995	-359.096	544.662	-15.9377	62.5013	0.123512	0.166198	0.0110395	
3.18495	-359.07	544.801	-15.6394	62.5992	0.191076	0.280429	0.0113242	
3.18994	-358.794	544.623	-15.7918	62.697	0.123212	0.165844	0.0110306	
3.19493	-358.602	544.429	-16.0491	62.7948	0.190385	0.279336	0.0113315	
3.19992	-358.659	544.534	-15.8404	62.8926	0.123921	0.167169	0.0109719	
3.20492	-358.649	544.629	-15.5314	62.9904	0.189123	0.277284	0.0113117	
3.20991	-358.423	544.39	-15.6876	63.0882	0.125559	0.169947	0.011141	
3.2149	-358.31	544.128	-15.9406	63.186	0.187289	0.27428	0.0111953	
3.21989	-358.457	544.17	-15.7317	63.2838	0.127882	0.174272	0.0109544	
3.22488	-358.532	544.23	-15.4188	63.3816	0.184815	0.270307	0.0112083	
3.22988	-358.355	544.004	-15.5739	63.4795	0.130819	0.179737	0.0109411	
3.23487	-358.253	543.774	-15.8345	63.5773	0.181832	0.265605	0.0111655	
3.23986	-358.388	543.855	-15.6265	63.6751	0.134549	0.186199	0.0110051	
3.24485	-358.433	543.958	-15.3167	63.7729	0.178404	0.259995	0.0110713	
3.24984	-358.249	543.755	-15.4802	63.8707	0.138666	0.193278	0.0109539	
3.25484	-358.145	543.548	-15.7505	63.9685	0.17459	0.25372	0.0110363	
3.25983	-358.262	543.662	-15.5532	64.0663	0.142954	0.200812	0.0109503	
3.26482	-358.277	543.793	-15.2474	64.1641	0.170278	0.246671	0.0110439	
3.26981	-358.043	543.61	-15.4016	64.2619	0.147596	0.208657	0.0109528	
3.2748	-357.891	543.404	-15.6599	64.3598	0.165686	0.239123	0.0110406	
3.2798	-357.968	543.507	-15.4614	64.4576	0.152143	0.216479	0.0109745	
3.28479	-357.944	543.633	-15.1532	64.5554	0.160786	0.231126	0.0109432	
3.28978	-357.682	543.446	-15.3158	64.6532	0.156728	0.224268	0.0110059	
3.29477	-357.519	543.209	-15.5832	64.751	0.155678	0.222716	0.0108784	
3.29976	-357.596	543.268	-15.3678	64.8488	0.16113	0.231712	0.0109648	
3.30476	-357.602	543.335	-15.0381	64.9466	0.150533	0.214085	0.0109328	
3.30975	-357.389	543.075	-15.1871	65.0444	0.16528	0.238724	0.0109362	
3.31474	-357.253	542.796	-15.4466	65.1422	0.145457	0.20547	0.0108662	
3.31973	-357.365	542.814	-15.2333	65.2401	0.169168	0.2453	0.0109701	
3.32473	-357.396	542.856	-14.9321	65.3379	0.140425	0.197033	0.0107854	
3.32972	-357.176	542.607	-15.0915	65.4357	0.172703	0.251194	0.0108879	
3.33471	-357.048	542.351	-15.3517	65.5335	0.135572	0.188887	0.0107516	
3.3397	-357.146	542.417	-15.153	65.6313	0.175786	0.256305	0.010972	
3.34469	-357.146	542.499	-14.8408	65.7291	0.131134	0.181274	0.010739	
3.34969	-356.91	542.268	-15.0009	65.8269	0.178501	0.260616	0.0109818	
3.35468	-356.765	542.02	-15.2621	65.9247	0.127238	0.174552	0.0106096	
3.35967	-356.861	542.076	-15.0461	66.0226	0.180479	0.264114	0.0109901	
3.36466	-356.873	542.153	-14.7303	66.1204	0.123886	0.168755	0.0106387	
3.36965	-356.651	541.923	-14.892	66.2182	0.182124	0.266791	0.0108734	
3.37465	-356.513	541.66	-15.1541	66.316	0.121239	0.164123	0.010529	
3.37964	-356.601	541.71	-14.9496	66.4138	0.183074	0.268465	0.0109125	
3.38463	-356.595	541.784	-14.6304	66.5116	0.119363	0.160957	0.0105418	
3.38962	-356.358	541.536	-14.7731	66.6094	0.183536	0.269235	0.0109213	
3.39461	-356.222	541.266	-15.0372	66.7072	0.118396	0.159382	0.0106084	
3.39961	-356.319	541.306	-14.8268	66.805	0.183576	0.269267	0.0108393	
3.4046	-356.321	541.358	-14.508	66.9029	0.118273	0.159466	0.01053	
3.40959	-356.098	541.107	-14.6605	67.0007	0.182688	0.267984	0.0108297	
3.41458	-355.969	540.843	-14.9263	67.0985	0.119311	0.160911	0.0105912	
3.41957	-356.075	540.89	-14.7242	67.1963	0.18153	0.265898	0.0108252	
3.42457	-356.089	540.955	-14.4074	67.2941	0.12092	0.164042	0.0105466	
3.42956	-355.869	540.698	-14.5593	67.3919	0.179637	0.262981	0.0108106	
3.43455	-355.734	540.429	-14.8318	67.4897	0.123322	0.168281	0.0105593	
3.43954	-355.832	540.475	-14.6379	67.5875	0.17727	0.259145	0.0107652	
3.44454	-355.851	540.546	-14.3234	67.6853	0.126417	0.173765	0.0105702	
3.44953	-355.64	540.31	-14.4864	67.7832	0.174374	0.254487	0.0106503	
3.45452	-355.522	540.044	-14.7589	67.881	0.129976	0.180091	0.0105397	
3.45951	-355.643	540.09	-14.5544	67.9788	0.171112	0.249051	0.0107477	
3.4645	-355.669	540.153	-14.2404	68.0766	0.133993	0.187079	0.010535	
3.4695	-355.461	539.906	-14.3907	68.1744	0.167259	0.242961	0.0106607	
3.47449	-355.355	539.643	-14.652	68.2722	0.13828	0.194438	0.0104783	
3.47948	-355.478	539.693	-14.4456	68.37	0.163127	0.236197	0.0106551	
3.48447	-355.5	539.753	-14.1221	68.4678	0.142725	0.201989	0.0105215	
3.48946	-355.286	539.499	-14.2717	68.5656	0.158722	0.228843	0.0105995	
3.49446	-355.159	539.233	-14.5477	68.6635	0.14717	0.209703	0.0105832	
3.49945	-355.265	539.265	-14.34	68.7613	0.154	0.221144	0.0105687	
3.50444	-355.279	539.309	-14.0085	68.8591	0.151583	0.217131	0.0104857	
3.50943	-355.059	539.037	-14.1575	68.9569	0.149233	0.213002	0.0105422	
3.51442	-354.927	538.735	-14.4251	69.0547	0.155837	0.224332	0.0105748	
3.51942	-355.028	538.739	-14.2149	69.1525	0.144197	0.204855	0.0105143	
3.52441	-355.02	538.773	-13.8817	69.2503	0.159874	0.23111	0.0105712	
3.5294	-354.781	538.498	-14.0361	69.3481	0.139291	0.196685	0.0104532	
3.53439	-354.641	538.19	-14.317	69.4459	0.163615	0.237316	0.0105492	
3.53938	-354.721	538.19	-14.1237	69.5438	0.134584	0.188479	0.0104061	
3.54438	-354.722	538.214	-13.8083	69.6416	0.166966	0.242913	0.0105892	
3.54937	-354.503	537.93	-13.9539	69.7394	0.130002	0.180879	0.0103204	
3.55436	-354.373	537.614	-14.2189	69.8372	0.169996	0.24783	0.0106383	
3.55935	-354.472	537.604	-14.0193	69.935	0.125776	0.173646	0.0102635	
3.56435	-354.487	537.621	-13.7123	70.0328	0.172448	0.251962	0.0105852	
3.56934	-354.279	537.337	-13.8879	70.1306	0.122106	0.16726	0.010247	
3.57433	-354.158	537.054	-14.1714	70.2284	0.174428	0.2553	0.0105488	
3.57932	-354.27	537.085	-13.9719	70.3262	0.119057	0.161949	0.0102237	
3.58431	-354.31	537.138	-13.6594	70.4241	0.17594	0.25772	0.0105312	
3.58931	-354.116	536.897	-13.8264	70.5219	0.116756	0.157808	0.0103005	
3.5943	-354.004	536.628	-14.1083	70.6197	0.176833	0.259311	0.0104747	
3.59929	-354.123	536.661	-13.9158	70.7175	0.114988	0.155122	0.0102115	
3.60428	-354.154	536.733	-13.6085	70.8153	0.177248	0.259982	0.0105081	
3.60927	-353.968	536.484	-13.7771	70.9131	0.11437	0.153859	0.0102907	
3.61427	-353.866	536.204	-14.0721	71.0109	0.177047	0.259722	0.0105903	
3.61926	-353.981	536.231	-13.8926	71.1087	0.114452	0.154043	0.0102393	
3.62425	-353.996	536.273	-13.5793	71.2065	0.176324	0.258598	0.0104588	
3.62924	-353.778	536.003	-13.7487	71.3044	0.115431	0.155821	0.01016	
3.63423	-353.641	535.712	-14.0367	71.4022	0.175032	0.256511	0.0104697	
3.63923	-353.728	535.725	-13.8334	71.5	0.117193	0.159058	0.010138	
3.64422	-353.715	535.741	-13.5084	71.5978	0.17323	0.253616	0.0104891	
3.64921	-353.478	535.437	-13.6652	71.6956	0.119627	0.163556	0.0101952	
3.6542	-353.336	535.11	-13.9431	71.7934	0.170884	0.249845	0.010381	
3.65919	-353.398	535.073	-13.7317	71.8912	0.122769	0.168913	0.0101389	
3.66419	-353.363	535.038	-13.3917	71.989	0.168071	0.245265	0.0103557	
3.66918	-353.11	534.696	-13.5312	72.0868	0.126371	0.175343	0.0102571	
3.67417	-352.944	534.316	-13.7897	72.1847	0.164845	0.239973	0.0102543	
3.67916	-352.982	534.236	-13.5471	72.2825	0.130269	0.182088	0.010164	
3.68415	-352.937	534.179	-13.169	72.3803	0.161168	0.233984	0.0103009	
3.68915	-352.678	533.817	-13.3115	72.4781	0.134493	0.189366	0.0101683	
3.69414	-352.489	533.425	-13.6015	72.5759	0.157198	0.227413	0.0102145	
3.69913	-352.511	533.336	-13.399	72.6737	0.138778	0.196809	0.0102181	
3.70412	-352.454	533.268	-13.0693	72.7715	0.152904	0.220317	0.0102521	
3.70912	-352.171	532.9	-13.2169	72.8693	0.143161	0.204176	0.0102013	
3.71411	-351.969	532.522	-13.4879	72.9671	0.148273	0.212849	0.0102436	
3.7191	-351.994	532.443	-13.2687	73.065	0.147507	0.211485	0.0102211	
3.72409	-351.942	532.381	-12.9372	73.1628	0.143651	0.205044	0.0101364	
3.72908	-351.68	532.016	-13.0872	73.2606	0.151606	0.21834	0.0101983	
3.73408	-351.489	531.65	-13.3591	73.3584	0.138924	0.197087	0.010173	
3.73907	-351.516	531.593	-13.1498	73.4562	0.155482	0.224868	0.0101984	
3.74406	-351.479	531.56	-12.8	73.554	0.134199	0.189184	0.0101089	
3.74905	-351.233	531.228	-12.94	73.6518	0.159132	0.230944	0.0101874	
3.75404	-351.064	530.867	-13.215	73.7496	0.129661	0.18144	0.0100833	
3.75904	-351.113	530.813	-12.998	73.8474	0.162318	0.236307	0.0102013	
3.76403	-351.079	530.79	-12.6487	73.9453	0.125308	0.174097	0.0100093	
3.76902	-350.818	530.466	-12.8046	74.0431	0.165201	0.240949	0.0102088	
3.77401	-350.645	530.127	-13.0897	74.1409	0.121386	0.167279	0.0100049	
3.779	-350.686	530.098	-12.8712	74.2387	0.167581	0.244889	0.0101947	
3.784	-350.637	530.083	-12.5197	74.3365	0.117901	0.161342	0.00998498	
3.78899	-350.374	529.761	-12.6567	74.4343	0.169391	0.247975	0.0102193	
3.79398	-350.182	529.42	-12.9262	74.5321	0.115041	0.156365	0.00995545	
3.79897	-350.212	529.383	-12.7	74.6299	0.170831	0.250363	0.0102565	
3.80396	-350.169	529.362	-12.3456	74.7277	0.112934	0.152585	0.00985519	
3.80896	-349.901	529.044	-12.5033	74.8256	0.171637	0.251732	0.0101712	
3.81395	-349.715	528.703	-12.7814	74.9234	0.111483	0.150213	0.00990468	
3.81894	-349.747	528.654	-12.5492	75.0212	0.17201	0.252348	0.0101978	
3.82393	-349.708	528.633	-12.1898	75.119	0.110928	0.149222	0.00989815	
3.82893	-349.455	528.309	-12.3287	75.2168	0.171784	0.25206	0.0101946	
3.83392	-349.262	527.956	-12.6089	75.3146	0.111198	0.149791	0.00986985	
3.83891	-349.279	527.905	-12.3987	75.4124	0.171027	0.250822	0.0101859	
3.8439	-349.206	527.889	-12.0573	75.5102	0.112309	0.151795	0.00984197	
3.84889	-348.918	527.58	-12.2226	75.608	0.169782	0.248773	0.0101917	
3.85389	-348.721	527.236	-12.5159	75.7059	0.114221	0.155171	0.00989495	
3.85888	-348.741	527.195	-12.2991	75.8037	0.167968	0.24584	0.0101339	
3.86387	-348.684	527.165	-11.9503	75.9015	0.116788	0.159703	0.00986128	
3.86886	-348.408	526.828	-12.11	75.9993	0.165658	0.242103	0.0101281	
3.87385	-348.207	526.489	-12.4133	76.0971	0.119871	0.165179	0.00985876	
3.87885	-348.215	526.448	-12.2129	76.1949	0.162897	0.23763	0.0100473	
3.88384	-348.143	526.422	-11.8765	76.2927	0.123415	0.171427	0.0098766	
3.88883	-347.863	526.099	-12.0419	76.3905	0.159693	0.232366	0.0100556	
3.89382	-347.684	525.747	-12.3416	76.4883	0.127421	0.178239	0.00988297	
3.89881	-347.732	525.697	-12.1375	76.5862	0.156144	0.226544	0.0100002	
3.90381	-347.697	525.682	-11.8005	76.684	0.131496	0.185378	0.00993747	
3.9088	-347.442	525.364	-11.9661	76.7818	0.152216	0.220091	0.0100207	
3.91379	-347.273	525.028	-12.261	76.8796	0.135799	0.192647	0.00989903	
3.91878	-347.324	525	-12.0454	76.9774	0.148028	0.213149	0.009966	
3.92377	-347.288	524.996	-11.7	77.0752	0.140037	0.199878	0.00990024	
3.92877	-347.034	524.701	-11.86	77.173	0.143584	0.205866	0.00992147	
3.93376	-346.859	524.387	-12.1586	77.2708	0.144249	0.206939	0.00988009	
3.93875	-346.912	524.366	-11.9619	77.3686	0.139077	0.19832	0.00994183	
3.94374	-346.884	524.361	-11.6177	77.4665	0.148256	0.213711	0.00991114	
3.94874	-346.631	524.062	-11.7726	77.5643	0.134494	0.190633	0.00984645	
3.95373	-346.465	523.75	-12.074	77.6621	0.152036	0.220037	0.00996425	
3.95872	-346.523	523.731	-11.8727	77.7599	0.129956	0.182952	0.00983494	
3.96371	-346.504	523.731	-11.5344	77.8577	0.15555	0.22582	0.00995611	
3.9687	-346.261	523.437	-11.707	77.9555	0.125585	0.175543	0.00977701	
3.9737	-346.091	523.114	-12.0075	78.0533	0.158643	0.231003	0.00999798	
3.97869	-346.143	523.085	-11.793	78.1511	0.121451	0.168533	0.00978594	
3.98368	-346.119	523.09	-11.4445	78.2489	0.161361	0.23549	0.00997352	
3.98867	-345.884	522.789	-11.6082	78.3468	0.117718	0.162029	0.00971412	
3.99366	-345.738	522.458	-11.9146	78.4446	0.163671	0.239258	0.00996133	
3.99866	-345.808	522.43	-11.7205	78.5424	0.114475	0.156395	0.00966858	
4.00365	-345.791	522.431	-11.3798	78.6402	0.165489	0.242246	0.00998149	
4.00864	-345.566	522.14	-11.5446	78.738	0.111765	0.151765	0.00970521	
4.01363	-345.429	521.827	-11.8528	78.8358	0.166786	0.244407	0.00992593	
4.01862	-345.5	521.808	-11.6537	78.9336	0.109823	0.1483	0.00970013	
4.02362	-345.487	521.81	-11.3156	79.0314	0.167525	0.245749	0.00994241	
4.02861	-345.252	521.514	-11.4773	79.1292	0.108643	0.146201	0.00965845	
4.0336	-345.098	521.193	-11.7794	79.2271	0.167834	0.246203	0.00999059	
4.03859	-345.163	521.166	-11.5822	79.3249	0.108202	0.145566	0.00966869	
4.04358	-345.145	521.161	-11.2417	79.4227	0.167544	0.245786	0.00994293	
4.04858	-344.913	520.849	-11.4041	79.5205	0.108678	0.146433	0.00961047	
4.05357	-344.755	520.505	-11.7081	79.6183	0.166789	0.244513	0.00991447	
4.05856	-344.806	520.456	-11.5083	79.7161	0.109883	0.148688	0.00963855	
4.06355	-344.774	520.428	-11.1605	79.8139	0.165469	0.24242	0.0099009	
4.06855	-344.535	520.095	-11.3203	79.9117	0.11187	0.152143	0.0096283	
4.07354	-344.375	519.719	-11.6312	80.0095	0.163677	0.239522	0.00986926	
4.07853	-344.411	519.631	-11.4174	80.1074	0.114477	0.156806	0.00969864	
4.08352	-344.363	519.572	-11.0576	80.2052	0.161388	0.235769	0.0098275	
4.08851	-344.095	519.209	-11.2203	80.303	0.117641	0.162399	0.00967957	
4.09351	-343.9	518.804	-11.5294	80.4008	0.158642	0.231341	0.00988994	
4.0985	-343.921	518.693	-11.3206	80.4986	0.121243	0.168608	0.00966412	
4.10349	-343.861	518.604	-10.9564	80.5964	0.155491	0.226168	0.0098228	
4.10848	-343.594	518.212	-11.1058	80.6942	0.125157	0.175357	0.00966088	
4.11347	-343.411	517.802	-11.4095	80.792	0.151945	0.220402	0.00975652	
4.11847	-343.443	517.7	-11.2137	80.8899	0.129264	0.182385	0.00964559	
4.12346	-343.395	517.622	-10.8672	80.9877	0.148126	0.214072	0.00971494	
4.12845	-343.135	517.26	-11.0341	81.0855	0.133416	0.189519	0.00968783	
4.13344	-342.974	516.874	-11.3508	81.1833	0.143982	0.207265	0.00971431	
4.13843	-343.019	516.782	-11.1382	81.2811	0.13768	0.196628	0.00966032	
4.14343	-342.982	516.719	-10.7909	81.3789	0.139681	0.200115	0.00967912	
4.14842	-342.737	516.37	-10.9686	81.4767	0.14176	0.203544	0.00968282	
4.15341	-342.565	516.006	-11.289	81.5745	0.135284	0.192712	0.00964787	
4.1584	-342.607	515.931	-11.0934	81.6723	0.14569	0.210155	0.00974882	
4.16339	-342.573	515.881	-10.7517	81.7702	0.130883	0.185272	0.0096115	
4.16839	-342.328	515.531	-10.9333	81.868	0.149415	0.216267	0.00971943	
4.17338	-342.162	515.171	-11.2635	81.9658	0.126475	0.177824	0.00963209	
4.17837	-342.204	515.108	-11.0633	82.0636	0.152758	0.221931	0.00974485	
4.18336	-342.172	515.049	-10.7068	82.1614	0.122269	0.170615	0.00954824	
4.18836	-341.937	514.688	-10.879	82.2592	0.155835	0.226881	0.00971721	
4.19335	-341.777	514.306	-11.2069	82.357	0.118262	0.163862	0.00955166	
4.19834	-341.823	514.223	-11.0086	82.4548	0.158424	0.231283	0.00976017	
4.20333	-341.797	514.165	-10.6552	82.5526	0.114723	0.1577	0.00952717	
4.20832	-341.554	513.806	-10.8206	82.6505	0.160601	0.234891	0.00972682	
4.21332	-341.381	513.422	-11.1354	82.7483	0.111589	0.152364	0.00951984	
4.21831	-341.429	513.32	-10.9263	82.8461	0.162348	0.237733	0.00971767	
4.2233	-341.403	513.233	-10.5671	82.9439	0.109188	0.148017	0.00944707	
4.22829	-341.15	512.854	-10.7262	83.0417	0.163568	0.239771	0.00976889	
4.23328	-340.972	512.439	-11.0415	83.1395	0.107377	0.144885	0.00946827	
4.23828	-341.006	512.307	-10.8423	83.2373	0.164288	0.240978	0.0097402	
4.24327	-340.947	512.186	-10.4799	83.3351	0.10637	0.143129	0.0094635	
4.24826	-340.674	511.77	-10.6454	83.4329	0.164475	0.24134	0.00976769	
4.25325	-340.48	511.331	-10.9642	83.5308	0.106156	0.142782	0.00944465	
4.25824	-340.484	511.173	-10.7559	83.6286	0.164218	0.240875	0.00970311	
4.26324	-340.41	511.03	-10.3976	83.7264	0.106727	0.143874	0.00945414	
4.26823	-340.135	510.585	-10.5618	83.8242	0.163376	0.239539	0.00971917	
4.27322	-339.927	510.121	-10.8896	83.922	0.108104	0.146298	0.00944517	
4.27821	-339.922	509.953	-10.6944	84.0198	0.162044	0.237374	0.00970751	
4.2832	-339.839	509.805	-10.342	84.1176	0.110138	0.149964	0.00945404	
4.2882	-339.54	509.358	-10.5195	84.2154	0.160249	0.234455	0.00967006	
4.29319	-339.314	508.881	-10.8547	84.3132	0.112826	0.154687	0.00945315	
4.29818	-339.307	508.689	-10.6536	84.4111	0.157926	0.230729	0.0096905	
4.30317	-339.234	508.506	-10.2912	84.5089	0.115974	0.160336	0.00945545	
4.30816	-338.949	508.029	-10.474	84.6067	0.15523	0.226263	0.0096496	
4.31316	-338.738	507.534	-10.8115	84.7045	0.119628	0.166557	0.00945968	
4.31815	-338.736	507.335	-10.6054	84.8023	0.152108	0.221159	0.00965518	
4.32314	-338.662	507.161	-10.2388	84.9001	0.12355	0.173287	0.0095123	
4.32813	-338.381	506.702	-10.4069	84.9979	0.148635	0.215404	0.0095954	
4.33313	-338.168	506.221	-10.7418	85.0957	0.12762	0.180304	0.00949418	
4.33812	-338.171	506.031	-10.5438	85.1935	0.144834	0.209148	0.00956102	
4.34311	-338.11	505.868	-10.1742	85.2914	0.131781	0.187352	0.00950937	
4.3481	-337.845	505.429	-10.3384	85.3892	0.140775	0.202454	0.00955418	
4.35309	-337.657	504.967	-10.6667	85.487	0.135932	0.194364	0.00950924	
4.35809	-337.664	504.782	-10.4525	85.5848	0.136588	0.195445	0.00951157	
4.36308	-337.599	504.625	-10.0838	85.6826	0.139959	0.201136	0.00953292	
4.36807	-337.331	504.189	-10.2612	85.7804	0.132234	0.188232	0.0094694	
4.37306	-337.13	503.733	-10.6062	85.8782	0.14384	0.20759	0.00957897	
4.37805	-337.132	503.562	-10.3981	85.976	0.127911	0.180886	0.00944291	
4.38305	-337.058	503.397	-10.0209	86.0738	0.147449	0.213589	0.00956145	
4.38804	-336.793	502.932	-10.1929	86.1717	0.123628	0.17367	0.00940658	
4.39303	-336.597	502.444	-10.5269	86.2695	0.150761	0.219085	0.00958295	
4.39802	-336.585	502.23	-10.3267	86.3673	0.119582	0.166674	0.00942163	
4.40301	-336.501	502.03	-9.9549	86.4651	0.153698	0.22397	0.00955472	
4.40801	-336.206	501.543	-10.123	86.5629	0.115762	0.160106	0.00939562	
4.413	-335.964	501.014	-10.4647	86.6607	0.156253	0.22818	0.00958255	
4.41799	-335.904	500.745	-10.261	86.7585	0.112315	0.154226	0.00938543	
4.42298	-335.77	500.482	-9.88654	86.8563	0.158359	0.231666	0.0095906	
4.42797	-335.441	499.919	-10.0556	86.9541	0.109418	0.149158	0.00937563	
4.43297	-335.174	499.301	-10.3925	87.052	0.160028	0.234372	0.00957207	
4.43796	-335.094	498.955	-10.1812	87.1498	0.107099	0.145134	0.00936601	
4.44295	-334.943	498.647	-9.80292	87.2476	0.16118	0.236308	0.00958398	
4.44794	-334.587	498.044	-9.97125	87.3454	0.105534	0.142279	0.00933457	
4.45294	-334.295	497.402	-10.3076	87.4432	0.161842	0.237399	0.00957217	
4.45793	-334.196	497.04	-10.101	87.541	0.104666	0.140791	0.00931828	
4.46292	-334.016	496.682	-9.72266	87.6388	0.161999	0.237675	0.00959346	
4.46791	-333.628	496.033	-9.88678	87.7366	0.104573	0.140738	0.00931076	
4.4729	-333.31	495.364	-10.2308	87.8344	0.161637	0.237093	0.00956448	
4.4779	-333.187	494.978	-10.0363	87.9323	0.105306	0.142032	0.00931687	
4.48289	-332.987	494.617	-9.65753	88.0301	0.160801	0.235723	0.0095589	
4.48788	-332.607	493.97	-9.82721	88.1279	0.106766	0.144664	0.00933303	
4.49287	-332.303	493.29	-10.1774	88.2257	0.159432	0.233517	0.00953509	
4.49786	-332.197	492.896	-9.96637	88.3235	0.108933	0.148516	0.00932209	
4.50286	-332.024	492.534	-9.58466	88.4213	0.157586	0.23053	0.00953689	
4.50785	-331.647	491.897	-9.76325	88.5191	0.111712	0.153358	0.00933086	
4.51284	-331.345	491.238	-10.1161	88.6169	0.155308	0.226776	0.00950828	
4.51783	-331.24	490.862	-9.8988	88.7147	0.114962	0.159058	0.00931634	
4.52282	-331.066	490.523	-9.50379	88.8126	0.152588	0.222326	0.00950994	
4.52782	-330.695	489.905	-9.67499	88.9104	0.118584	0.165365	0.00934514	
4.53281	-330.394	489.253	-10.0195	89.0082	0.149476	0.217209	0.00946397	
4.5378	-330.284	488.875	-9.7995	89.106	0.122516	0.172086	0.00933328	
4.54279	-330.104	488.508	-9.40704	89.2038	0.14602	0.211519	0.00947436	
4.54778	-329.732	487.858	-9.58557	89.3016	0.126596	0.179028	0.00935714	
4.55278	-329.418	487.184	-9.93829	89.3994	0.142249	0.205323	0.00944493	
4.55777	-329.299	486.783	-9.72736	89.4972	0.130728	0.186044	0.00940946	
4.56276	-329.105	486.424	-9.33551	89.595	0.138284	0.198692	0.00940771	
4.56775	-328.721	485.797	-9.51099	89.6929	0.134814	0.192947	0.00939336	
4.57275	-328.41	485.13	-9.86633	89.7907	0.134105	0.191758	0.00939517	
4.57774	-328.297	484.743	-9.65125	89.8885	0.138828	0.19967	0.00939605	
4.58273	-328.121	484.398	-9.25787	89.9863	0.129861	0.18463	0.00936958	
4.58772	-327.75	483.78	-9.43726	90.0841	0.142638	0.205994	0.00943926	
4.59271	-327.443	483.13	-9.79254	90.1819	0.125613	0.177451	0.00932626	
4.59771	-327.322	482.759	-9.57471	90.2797	0.146198	0.21191	0.00945031	
4.6027	-327.137	482.435	-9.17706	90.3775	0.12143	0.170372	0.00931672	
4.60769	-326.772	481.846	-9.34589	90.4753	0.149442	0.217251	0.00943361	
4.61268	-326.485	481.225	-9.70087	90.5732	0.117455	0.163549	0.00929422	
4.61767	-326.397	480.891	-9.48395	90.671	0.15232	0.222008	0.00945397	
4.62267	-326.225	480.586	-9.0846	90.7688	0.113752	0.157205	0.00928098	
4.62766	-325.847	480.005	-9.26148	90.8666	0.1548	0.226122	0.00946799	
4.63265	-325.554	479.4	-9.63104	90.9644	0.110499	0.15152	0.00925716	
4.63764	-325.456	479.083	-9.42053	91.0622	0.156837	0.229463	0.00947686	
4.64263	-325.294	478.816	-9.01679	91.16	0.107738	0.146692	0.00924767	
4.64763	-324.939	478.261	-9.18713	91.2578	0.158424	0.232079	0.00947087	
4.65262	-324.654	477.662	-9.55304	91.3556	0.105577	0.142942	0.00925115	
4.65761	-324.567	477.322	-9.34308	91.4535	0.159548	0.233895	0.00947237	
4.6626	-324.393	476.999	-8.94043	91.5513	0.104152	0.140383	0.00922786	
4.66759	-324.013	476.395	-9.12097	91.6491	0.160147	0.234886	0.00948401	
4.67259	-323.698	475.748	-9.49622	91.7469	0.10344	0.139158	0.00923942	
4.67758	-323.571	475.364	-9.30011	91.8447	0.160238	0.235099	0.0094701	
4.68257	-323.373	475.006	-8.91333	91.9425	0.10354	0.139339	0.00920666	
4.68756	-322.981	474.362	-9.10089	92.0403	0.159862	0.23443	0.00947994	
4.69256	-322.662	473.671	-9.47791	92.1381	0.104394	0.140905	0.00922155	
4.69755	-322.536	473.253	-9.28259	92.2359	0.158939	0.232984	0.00946607	
4.70254	-322.345	472.871	-8.89209	92.3338	0.105991	0.143737	0.00922017	
4.70753	-321.976	472.233	-9.08185	92.4316	0.157545	0.230721	0.00946388	
4.71252	-321.682	471.583	-9.47644	92.5294	0.10827	0.147761	0.00921867	
4.71752	-321.583	471.221	-9.28369	92.6272	0.155694	0.22767	0.00944176	
4.72251	-321.412	470.914	-8.88886	92.725	0.111114	0.152748	0.00923863	
4.7275	-321.068	470.355	-9.08069	92.8228	0.15337	0.223888	0.00942893	
4.73249	-320.806	469.765	-9.46381	92.9206	0.114461	0.158537	0.00924995	
4.73748	-320.725	469.457	-9.26276	93.0184	0.15065	0.219414	0.00940653	
4.74248	-320.58	469.188	-8.85932	93.1162	0.118123	0.164894	0.00926216	
4.74747	-320.258	468.656	-9.04645	93.2141	0.147531	0.214297	0.00938706	
4.75246	-320.011	468.108	-9.43677	93.3119	0.122046	0.171636	0.00927621	
4.75745	-319.952	467.822	-9.23145	93.4097	0.144083	0.208603	0.00938324	
4.76244	-319.817	467.564	-8.82697	93.5075	0.126132	0.178584	0.00928964	
4.76744	-319.492	467.046	-9.0108	93.6053	0.140355	0.202421	0.00935392	
4.77243	-319.241	466.496	-9.39447	93.7031	0.130266	0.185561	0.00928856	
4.77742	-319.174	466.198	-9.19513	93.8009	0.136386	0.19583	0.00932731	
4.78241	-319.039	465.925	-8.79889	93.8987	0.134345	0.19242	0.00931332	
4.7874	-318.715	465.395	-8.99207	93.9965	0.132282	0.188954	0.00930704	
4.7924	-318.456	464.827	-9.37824	94.0944	0.138313	0.199048	0.00933493	
4.79739	-318.393	464.52	-9.1745	94.1922	0.128088	0.181906	0.00929165	
4.80238	-318.263	464.254	-8.77442	94.29	0.142078	0.205325	0.00934577	
4.80737	-317.952	463.727	-8.96082	94.3878	0.123904	0.174829	0.00926651	
4.81236	-317.701	463.15	-9.35773	94.4856	0.145583	0.211123	0.00935751	
4.81736	-317.629	462.82	-9.15405	94.5834	0.119799	0.167869	0.00924763	
4.82235	-317.489	462.518	-8.74274	94.6812	0.14877	0.216404	0.00937786	
4.82734	-317.161	461.963	-8.93744	94.779	0.115916	0.161214	0.0092315	
4.83233	-316.91	461.385	-9.32544	94.8768	0.151601	0.221066	0.0093867	
4.83733	-316.844	461.06	-9.11389	94.9747	0.112354	0.155034	0.00921143	
4.84232	-316.712	460.77	-8.70105	95.0725	0.154027	0.225055	0.00940475	
4.84731	-316.397	460.219	-8.89197	95.1703	0.109196	0.149555	0.00919897	
4.8523	-316.143	459.63	-9.28858	95.2681	0.156013	0.228319	0.00941138	
4.85729	-316.068	459.301	-9.09131	95.3659	0.10658	0.144954	0.00917892	
4.86229	-315.915	458.985	-8.68781	95.4637	0.157536	0.230825	0.00942323	
4.86728	-315.583	458.393	-8.86798	95.5615	0.104567	0.141438	0.00917637	
4.87227	-315.318	457.755	-9.26703	95.6593	0.158587	0.23254	0.00941187	
4.87726	-315.21	457.358	-9.07282	95.7572	0.103281	0.139138	0.00917091	
4.88225	-315.03	456.979	-8.65863	95.855	0.159143	0.233451	0.00941254	
4.88725	-314.675	456.321	-8.84869	95.9528	0.102739	0.138199	0.00915508	
4.89224	-314.371	455.613	-9.25263	96.0506	0.159195	0.233543	0.00941664	
4.89723	-314.236	455.156	-9.04303	96.1484	0.102978	0.138624	0.00916028	
4.90222	-314.032	454.72	-8.62927	96.2462	0.158736	0.232809	0.00941871	
4.90721	-313.652	454.012	-8.81909	96.344	0.103987	0.140424	0.00916054	
4.91221	-313.333	453.268	-9.21259	96.4418	0.157795	0.231274	0.00941369	
4.9172	-313.179	452.776	-9.00482	96.5396	0.105714	0.143496	0.00916923	
4.92219	-312.96	452.304	-8.57642	96.6375	0.156367	0.228935	0.00939491	
4.92718	-312.558	451.566	-8.76025	96.7353	0.108098	0.147691	0.00918142	
4.93217	-312.219	450.788	-9.15949	96.8331	0.15447	0.225834	0.0093815	
4.93717	-312.061	450.259	-8.94867	96.9309	0.111033	0.152834	0.00918355	
4.94216	-311.843	449.759	-8.53265	97.0287	0.152129	0.221995	0.00937183	
4.94715	-311.451	449.015	-8.72205	97.1265	0.114423	0.158725	0.00920476	
4.95214	-311.119	448.253	-9.13538	97.2243	0.149377	0.217475	0.00935443	
4.95714	-310.969	447.752	-8.93311	97.3221	0.11816	0.165156	0.00921188	
4.96213	-310.754	447.286	-8.5091	97.4199	0.146253	0.212326	0.00934678	
4.96712	-310.364	446.578	-8.70648	97.5178	0.12213	0.171948	0.00922587	
4.97211	-310.059	445.85	-9.11817	97.6156	0.142799	0.20662	0.00931996	
4.9771	-309.939	445.386	-8.92676	97.7134	0.126232	0.178905	0.00924397	
4.9821	-309.752	444.97	-8.51733	97.8112	0.139068	0.200429	0.00930403	
4.98709	-309.386	444.312	-8.71253	97.909	0.130366	0.185885	0.00926242	
4.99208	-309.1	443.633	-9.12689	98.0068	0.135126	0.193861	0.00927947	
4.99707	-308.997	443.203	-8.92603	98.1046	0.134447	0.192731	0.00927708	
5.00206	-308.81	442.79	-8.51447	98.2024	0.131034	0.187015	0.00926209	
5.00706	-308.448	442.127	-8.73114	98.3002	0.138393	0.199315	0.00930023	
5.01205	-308.156	441.431	-9.16486	98.3981	0.12688	0.180013	0.00924534	
5.01704	-308.034	440.984	-8.96564	98.4959	0.142131	0.205529	0.00931022	
5.02203	-307.846	440.567	-8.53851	98.5937	0.12274	0.173005	0.00922376	
5.02702	-307.485	439.891	-8.7406	98.6915	0.145605	0.211277	0.00933106	
5.03202	-307.194	439.189	-9.16071	98.7893	0.11872	0.166146	0.00920527	
5.03701	-307.07	438.744	-8.94806	98.8871	0.148759	0.216478	0.00934585	
5.042	-306.88	438.318	-8.52356	98.9849	0.114916	0.159609	0.00919222	
5.04699	-306.519	437.642	-8.72925	99.0827	0.151539	0.22106	0.00936025	
5.05198	-306.22	436.935	-9.15424	99.1805	0.11144	0.15359	0.00917422	
5.05698	-306.094	436.472	-8.94507	99.2784	0.153917	0.224961	0.00937352	
5.06197	-305.904	436.035	-8.51093	99.3762	0.108402	0.148286	0.0091649	
5.06696	-305.544	435.352	-8.72254	99.474	0.155856	0.228141	0.00938198	
5.07195	-305.259	434.65	-9.16473	99.5718	0.105904	0.143897	0.00915414	
5.07695	-305.146	434.193	-8.96338	99.6696	0.157332	0.230556	0.00939049	
5.08194	-304.95	433.759	-8.5257	99.7674	0.104043	0.140607	0.00914728	
5.08693	-304.574	433.074	-8.7182	99.8652	0.158326	0.232183	0.00939464	
5.09192	-304.276	432.344	-9.14716	99.963	0.102893	0.138565	0.0091433	
5.09691	-304.152	431.856	-8.95239	100.061	0.158826	0.233	0.00939758	
5.10191	-303.954	431.401	-8.51538	
5.1069	-303.58	430.692	-8.71082	
5.11189	-303.27	429.946	-9.14423	
5.11688	-303.129	429.446	-8.92896	
5.12187	-302.916	428.958	-8.48828	
5.12687	-302.526	428.205	-8.69476	
5.13186	-302.196	427.419	-9.12091	
5.13685	-302.029	426.863	-8.90747	
5.14184	-301.788	426.307	-8.46674	
5.14683	-301.385	425.496	-8.65857	
5.15183	-301.041	424.66	-9.09174	
5.15682	-300.847	424.052	-8.89142	
5.16181	-300.588	423.455	-8.44263	
5.1668	-300.154	422.616	-8.63428	
5.17179	-299.785	421.734	-9.07044	
5.17679	-299.595	421.075	-8.86688	
5.18178	-299.33	420.445	-8.42578	
5.18677	-298.892	419.578	-8.62903	
5.19176	-298.535	418.7	-9.07538	
5.19676	-298.339	418.069	-8.8783	
5.20175	-298.072	417.472	-8.43286	
5.20674	-297.651	416.649	-8.63367	
5.21173	-297.31	415.81	-9.08081	
5.21672	-297.141	415.221	-8.87421	
5.22172	-296.91	414.663	-8.43097	
5.22671	-296.508	413.881	-8.64307	
5.2317	-296.168	413.078	-9.08515	
5.23669	-295.998	412.514	-8.88165	
5.24168	-295.761	411.983	-8.4502	
5.24668	-295.361	411.21	-8.66882	
5.25167	-295.026	410.415	-9.12573	
5.25666	-294.858	409.849	-8.92987	
5.26165	-294.628	409.312	-8.48816	
5.26664	-294.237	408.551	-8.70355	
5.27164	-293.907	407.759	-9.16058	
5.27663	-293.736	407.188	-8.96015	
5.28162	-293.492	406.631	-8.52966	
5.28661	-293.073	405.819	-8.75708	
5.2916	-292.716	404.931	-9.21161	
5.2966	-292.516	404.249	-9.00647	
5.30159	-292.228	403.577	-8.55573	
5.30658	-291.752	402.642	-8.76013	
5.31157	-291.336	401.649	-9.22614	
5.31657	-291.069	400.857	-9.0246	
5.32156	-290.728	400.061	-8.55878	
5.32655	-290.225	399.016	-8.76898	
5.33154	-289.768	397.923	-9.24426	
5.33653	-289.469	397.031	-9.04279	
5.34153	-289.1	396.153	-8.58966	
5.34652	-288.554	395.035	-8.81159	
5.35151	-288.057	393.862	-9.27033	
5.3565	-287.713	392.881	-9.06647	
5.36149	-287.278	391.887	-8.60773	
5.36649	-286.665	390.63	-8.80536	
5.37148	-286.118	389.321	-9.27551	
5.37647	-285.722	388.214	-9.07813	
5.38146	-285.246	387.111	-8.62158	
5.38645	-284.594	385.767	-8.83283	
5.39145	-283.995	384.362	-9.29553	
5.39644	-283.544	383.148	-9.09686	
5.40143	-283.018	381.938	-8.63233	
5.40642	-282.317	380.482	-8.83283	
5.41141	-281.666	378.955	-9.29352	
5.41641	-281.16	377.623	-9.08545	
5.4214	-280.589	376.308	-8.62561	
5.42639	-279.84	374.752	-8.83814	
5.43138	-279.14	373.157	-9.31354	
5.43637	-278.599	371.754	-9.11554	
5.44137	-277.978	370.353	-8.66156	
5.44636	-277.192	368.731	-8.89307	
5.45135	-276.472	367.072	-9.38361	
5.45634	-275.895	365.602	-9.19074	
5.46134	-275.251	364.143	-8.73364	
5.46633	-274.462	362.482	-8.94794	
5.47132	-273.731	360.803	-9.41998	
5.47631	-273.151	359.341	-9.21747	
5.4813	-272.517	357.923	-8.74347	
5.4863	-271.744	356.318	-8.95654	
5.49129	-271.04	354.698	-9.4444	
5.49628	-270.492	353.279	-9.24005	
5.50127	-269.874	351.873	-8.77472	
5.50626	-269.093	350.262	-9.00012	
5.51126	-268.369	348.609	-9.48535	
5.51625	-267.771	347.112	-9.27973	
5.52124	-267.084	345.575	-8.81299	
5.52623	-266.231	343.811	-9.04529	
5.53122	-265.428	341.999	-9.5539	
5.53622	-264.764	340.363	-9.36505	
5.54121	-264.043	338.768	-8.90234	
5.5462	-263.18	337.003	-9.13587	
5.55119	-262.373	335.232	-9.63654	
5.55618	-261.707	333.652	-9.43781	
5.56118	-260.997	332.107	-8.9668	
5.56617	-260.149	330.39	-9.19965	
5.57116	-259.362	328.663	-9.71045	
5.57615	-258.741	327.131	-9.50287	
5.58115	-258.065	325.659	-9.02265	
5.58614	-257.247	324.046	-9.25739	
5.59113	-256.508	322.435	-9.7497	
5.59612	-255.931	321.045	-9.53082	
5.60111	-255.307	319.713	-9.04035	
5.60611	-254.55	318.243	-9.26495	
5.6111	-253.884	316.802	-9.77533	
5.61609	-253.398	315.599	-9.57037	
5.62108	-252.88	314.487	-9.08087	
5.62607	-252.238	313.24	-9.30084	
5.63107	-251.644	311.963	-9.79376	
5.63606	-251.165	310.802	-9.58026	
5.64105	-250.606	309.593	-9.09485	
5.64604	-249.885	308.158	-9.32166	
5.65103	-249.19	306.644	-9.83643	
5.65603	-248.589	305.225	-9.63709	
5.66102	-247.911	303.775	-9.13941	
5.66601	-247.075	302.144	-9.35706	
5.671	-246.283	300.474	-9.87024	
5.67599	-245.629	298.942	-9.67316	
5.68099	-244.919	297.431	-9.19043	
5.68598	-244.073	295.778	-9.41742	
5.69097	-243.284	294.104	-9.91974	
5.69596	-242.64	292.58	-9.71057	
5.70096	-241.957	291.11	-9.21967	
5.70595	-241.164	289.551	-9.44525	
5.71094	-240.449	288.038	-9.95191	
5.71593	-239.88	286.711	-9.72553	
5.72092	-239.268	285.416	-9.22125	
5.72592	-238.538	284.015	-9.44568	
5.73091	-237.894	282.656	-9.95551	
5.7359	-237.405	281.478	-9.74054	
5.74089	-236.859	280.34	-9.23267	
5.74588	-236.183	279.08	-9.448	
5.75088	-235.56	277.807	-9.94879	
5.75587	-235.082	276.684	-9.7273	
5.76086	-234.557	275.587	-9.21765	
5.76585	-233.893	274.349	-9.43384	
5.77084	-233.275	273.082	-9.93817	
5.77584	-232.782	271.925	-9.71271	
5.78083	-232.231	270.759	-9.20984	
5.78582	-231.532	269.446	-9.43384	
5.79081	-230.873	268.11	-9.94733	
5.7958	-230.342	266.887	-9.73596	
5.8008	-229.759	265.659	-9.23401	
5.80579	-229.036	264.303	-9.47003	
5.81078	-228.362	262.934	-9.99115	
5.81577	-227.819	261.674	-9.77606	
5.82077	-227.223	260.433	-9.27741	
5.82576	-226.505	259.1	-9.50275	
5.83075	-225.849	257.762	-10.0176	
5.83574	-225.321	256.561	-9.81629	
5.84073	-224.747	255.387	-9.32184	
5.84573	-224.058	254.105	-9.55408	
5.85072	-223.414	252.836	-10.0821	
5.85571	-222.911	251.687	-9.87573	
5.8607	-222.369	250.561	-9.3689	
5.86569	-221.697	249.334	-9.58264	
5.87069	-221.075	248.092	-10.088	
5.87568	-220.575	246.957	-9.87354	
5.88067	-220.012	245.806	-9.3692	
5.88566	-219.3	244.502	-9.59668	
5.89065	-218.607	243.144	-10.1143	
5.89565	-218.021	241.852	-9.89252	
5.90064	-217.376	240.543	-9.37476	
5.90563	-216.591	239.123	-9.58685	
5.91062	-215.85	237.688	-10.0909	
5.91561	-215.225	236.323	-9.87488	
5.92061	-214.535	234.949	-9.36975	
5.9256	-213.724	233.488	-9.58032	
5.93059	-212.98	232.054	-10.0865	
5.93558	-212.381	230.763	-9.86896	
5.94058	-211.74	229.486	-9.35822	
5.94557	-210.953	228.113	-9.56744	
5.95056	-210.221	226.747	-10.064	
5.95555	-209.639	225.506	-9.83844	
5.96054	-209.027	224.312	-9.33045	
5.96554	-208.309	223.076	-9.54932	
5.97053	-207.666	221.886	-10.0565	
5.97552	-207.167	220.801	-9.83685	
5.98051	-206.619	219.749	-9.30969	
5.9855	-205.963	218.642	-9.50897	
5.9905	-205.371	217.557	-10.0178	
5.99549	-204.928	216.604	-9.79938	
6.00048	-204.457	215.684	-9.27716	
6.00547	-203.861	214.688	-9.47473	
6.01046	-203.3	213.68	-9.98218	
6.01546	-202.849	212.717	-9.76727	
6.02045	-202.335	211.716	-9.24609	
6.02544	-201.67	210.612	-9.44006	
6.03043	-201.043	209.501	-9.93085	
6.03542	-200.539	208.459	-9.70136	
6.04042	-199.98	207.389	-9.17468	
6.04541	-199.271	206.203	-9.37946	
6.0504	-198.585	204.99	-9.87763	
6.05539	-198.017	203.831	-9.65192	
6.06038	-197.404	202.691	-9.12525	
6.06538	-196.693	201.525	-9.32025	
6.07037	-196.052	200.4	-9.82977	
6.07536	-195.552	199.383	-9.62683	
6.08035	-195.008	198.379	-9.11688	
6.08535	-194.336	197.319	-9.33295	
6.09034	-193.718	196.259	-9.84577	
6.09533	-193.234	195.282	-9.63934	
6.10032	-192.728	194.35	-9.13153	
6.10531	-192.12	193.384	-9.33887	
6.11031	-191.572	192.463	-9.841	
6.1153	-191.161	191.642	-9.62549	
6.12029	-190.723	190.834	-9.13373	
6.12528	-190.175	189.985	-9.35907	
6.13027	-189.677	189.17	-9.88379	
6.13527	-189.325	188.444	-9.68677	
6.14026	-188.957	187.751	-9.1662	
6.14525	-188.472	187.03	-9.35773	
6.15024	-188.03	186.331	-9.85614	
6.15523	-187.729	185.685	-9.64209	
6.16023	-187.371	185.01	-9.12445	
6.16522	-186.87	184.259	-9.31983	
6.17021	-186.393	183.482	-9.82422	
6.1752	-186.005	182.706	-9.61749	
6.18019	-185.555	181.89	-9.10254	
6.18519	-184.96	180.992	-9.29791	
6.19018	-184.372	180.045	-9.79785	
6.19517	-183.882	179.111	-9.57385	
6.20016	-183.334	178.136	-9.04895	
6.20516	-182.636	177.066	-9.24713	
6.21015	-181.95	175.968	-9.75098	
6.21514	-181.374	174.9	-9.53339	
6.22013	-180.742	173.809	-9.00897	
6.22512	-179.982	172.657	-9.20245	
6.23012	-179.261	171.525	-9.69135	
6.23511	-178.656	170.449	-9.46466	
6.2401	-178.026	169.355	-8.94519	
6.24509	-177.268	168.22	-9.13275	
6.25008	-176.538	167.106	-9.62598	
6.25508	-175.937	166.028	-9.41376	
6.26007	-175.293	164.932	-8.88837	
6.26506	-174.509	163.779	-9.065	
6.27005	-173.746	162.606	-9.5459	
6.27504	-173.088	161.471	-9.32916	
6.28004	-172.394	160.33	-8.81378	
6.28503	-171.57	159.123	-9.00281	
6.29002	-170.753	157.891	-9.4867	
6.29501	-170.029	156.676	-9.27258	
6.3	-169.273	155.463	-8.75891	
6.305	-168.421	154.26	-8.93396	
6.30999	-167.58	153.054	-9.42377	
6.31498	-166.825	151.826	-9.22614	
6.31997	-166.027	150.562	-8.71863	
6.32497	-165.105	149.271	-8.90039	
6.32996	-164.247	148.037	-9.3819	
6.33495	-163.55	146.89	-9.16358	
6.33994	-162.85	145.787	-8.64649	
6.34493	-162.057	144.705	-8.84332	
6.34993	-161.321	143.675	-9.34174	
6.35492	-160.731	142.706	-9.12457	
6.35991	-160.137	141.77	-8.62512	
6.3649	-159.455	140.844	-8.81067	
6.36989	-158.806	139.944	-9.29706	
6.37489	-158.249	139.074	-9.12128	
6.37988	-157.661	138.167	-8.61804	
6.38487	-156.92	137.192	-8.79407	
6.38986	-156.146	136.173	-9.2757	
6.39485	-155.46	135.116	-9.08447	
6.39985	-154.721	134.011	-8.591	
6.40484	-153.841	132.865	-8.78174	
6.40983	-152.962	131.711	-9.26782	
6.41482	-152.171	130.536	-9.06775	
6.41981	-151.337	129.32	-8.56134	
6.42481	-150.378	128.11	-8.7229	
6.4298	-149.479	126.952	-9.18628	
6.43479	-148.753	125.869	-8.97998	
6.43978	-148.052	124.861	-8.49463	
6.44478	-147.282	123.922	-8.67798	
6.44977	-146.582	123.068	-9.14191	
6.45476	-146.054	122.282	-8.9466	
6.45975	-145.553	121.549	-8.45709	
6.46474	-144.964	120.867	-8.62634	
6.46974	-144.419	120.222	-9.10095	
6.47473	-144.005	119.601	-8.91028	
6.47972	-143.56	118.964	-8.43213	
6.48471	-142.984	118.299	-8.61176	
6.4897	-142.398	117.61	-9.07257	
6.4947	-141.886	116.87	-8.88159	
6.49969	-141.304	116.054	-8.3988	
6.50468	-140.546	115.169	-8.57153	
6.50967	-139.751	114.242	-9.0246	
6.51466	-139.024	113.251	-8.82123	
6.51966	-138.226	112.167	-8.34528	
6.52465	-137.242	111.019	-8.51129	
6.52964	-136.218	109.834	-8.95966	
6.53463	-135.271	108.594	-8.76563	
6.53962	-134.27	107.298	-8.27582	
6.54462	-133.125	105.999	-8.41919	
6.54961	-132.003	104.735	-8.85889	
6.5546	-131.012	103.482	-8.67719	
6.55959	-129.997	102.211	-8.20648	
6.56459	-128.831	100.936	-8.36127	
6.56958	-127.676	99.676	-8.79614	
6.57457	-126.639	98.3992	-8.58948	
6.57956	-125.566	97.0993	-8.11133	
6.58455	-124.369	95.8287	-8.26117	
6.58955	-123.185	94.5908	-8.67603	
6.59454	-122.117	93.3352	-8.47235	
6.59953	-121.002	92.0327	-7.98969	
6.60452	-119.72	90.7167	-8.13568	
6.60951	-118.425	89.4097	-8.58264	
6.61451	-117.224	88.0693	-8.43042	
6.6195	-115.989	86.685	-7.99371	
6.62449	-114.601	85.3095	-8.14765	
6.62948	-113.2	83.9401	-8.5517	
6.63447	-111.911	82.5401	-8.35645	
6.63947	-110.601	81.1244	-7.92169	
6.64446	-109.146	79.7332	-8.08075	
6.64945	-107.693	78.3885	-8.50531	
6.65444	-106.385	77.0658	-8.36078	
6.65943	-105.108	75.7675	-7.96076	
6.66443	-103.741	74.5328	-8.12708	
6.66942	-102.404	73.3618	-8.53668	
6.67441	-101.222	72.1941	-8.38245	
6.6794	-100.057	71.0161	-7.97662	
6.68439	-98.7601	69.8696	-8.11646	
6.68939	-97.4462	68.7471	-8.48901	
6.69438	-96.2775	67.6276	-8.30969	
6.69937	-95.1265	66.5093	-7.88825	
6.70436	-93.8411	65.4273	-8.02222	
6.70936	-92.5688	64.4052	-8.41339	
6.71435	-91.4483	63.3914	-8.27515	
6.71934	-90.3361	62.3701	-7.90448	
6.72433	-89.0956	61.3896	-8.06213	
6.72932	-87.8582	60.4401	-8.4444	
6.73432	-86.7647	59.4772	-8.2984	
6.73931	-85.676	58.5003	-7.91516	
6.7443	-84.4378	57.5374	-8.03125	
6.74929	-83.1623	56.5806	-8.37775	
6.75428	-81.9934	55.5836	-8.22571	
6.75928	-80.8116	54.5529	-7.8479	
6.76427	-79.4893	53.5538	-7.96423	
6.76926	-78.165	52.6019	-8.29968	
6.77425	-76.9819	51.6421	-8.15436	
6.77924	-75.8374	50.6887	-7.79334	
6.78424	-74.6001	49.8053	-7.90955	
6.78923	-73.3759	48.9713	-8.2442	
6.79422	-72.3021	48.1281	-8.11218	
6.79921	-71.2673	47.2933	-7.77521	
6.8042	-70.1368	46.5275	-7.89746	
6.8092	-69.0288	45.8116	-8.21723	
6.81419	-68.0947	45.0957	-8.08392	
6.81918	-67.2279	44.3964	-7.75214	
6.82417	-66.2734	43.7733	-7.85767	
6.82917	-65.3236	43.192	-8.16498	
6.83416	-64.4976	42.5664	-8.04889	
6.83915	-63.6878	41.928	-7.72949	
6.84414	-62.7698	41.3441	-7.84583	
6.84913	-61.8369	40.7883	-8.16455	
6.85413	-61.0214	40.1914	-8.04834	
6.85912	-60.2253	39.5823	-7.73547	
6.86411	-59.3239	39.0344	-7.83936	
6.8691	-58.434	38.5223	-8.13886	
6.87409	-57.6925	37.9876	-8.03369	
6.87909	-56.9784	37.4459	-7.73901	
6.88408	-56.1411	36.9497	-7.84406	
6.88907	-55.301	36.4839	-8.12695	
6.89406	-54.6088	35.9912	-8.01068	
6.89905	-53.9337	35.4748	-7.72009	
6.90405	-53.1081	34.9895	-7.81159	
6.90904	-52.2548	34.5234	-8.08533	
6.91403	-51.5194	34.0209	-7.97461	
6.91902	-50.7781	33.4834	-7.67859	
6.92401	-49.8928	32.9686	-7.76953	
6.92901	-48.998	32.4791	-8.03119	
6.934	-48.2446	31.9781	-7.92468	
6.93899	-47.5169	31.4749	-7.6535	
6.94398	-46.6744	31.0035	-7.73987	
6.94898	-45.8365	30.5683	-8.00482	
6.95397	-45.162	30.1221	-7.90765	
6.95896	-44.5205	29.6725	-7.6427	
6.96395	-43.7606	29.2698	-7.74335	
6.96894	-43.0106	28.8949	-7.99146	
6.97394	-42.42	28.5055	-7.88184	
6.97893	-41.8857	28.1239	-7.61249	
6.98392	-41.2471	27.7951	-7.69122	
6.98891	-40.5933	27.4954	-7.94306	
6.9939	-40.0924	27.1685	-7.86292	
6.9989	-39.654	26.8369	-7.61206	
7.00389	-39.1071	26.5604	-7.68982	
7.00888	-38.5228	26.3066	-7.92041	
7.01387	-38.0555	26.0054	-7.82532	
7.01886	-37.6232	25.6896	-7.58606	
7.02386	-37.0794	25.4189	-7.65918	
7.02885	-36.5278	25.1778	-7.87616	
7.03384	-36.1132	24.9178	-7.79102	
7.03883	-35.7285	24.6369	-7.55609	
7.04382	-35.2215	24.3921	-7.62512	
7.04882	-34.6976	24.17	-7.84638	
7.05381	-34.2961	23.9095	-7.76019	
7.0588	-33.9163	23.6354	-7.51691	
7.06379	-33.4152	23.3937	-7.57861	
7.06879	-32.8818	23.1662	-7.78711	
7.07378	-32.46	22.9133	-7.69708	
7.07877	-32.0573	22.6344	-7.48139	
7.08376	-31.5372	22.3746	-7.5553	
7.08875	-30.9906	22.1361	-7.75415	
7.09375	-30.5463	21.8691	-7.66052	
7.09874	-30.1282	21.5988	-7.43567	
7.10373	-29.6098	21.3518	-7.49677	
7.10872	-29.0629	21.1176	-7.69074	
7.11371	-28.6195	20.8627	-7.60754	
7.11871	-28.2028	20.5853	-7.38959	
7.1237	-27.6815	20.3327	-7.44623	
7.12869	-27.1279	20.103	-7.62793	
7.13368	-26.6835	19.8498	-7.54395	
7.13867	-26.283	19.5773	-7.33331	
7.14367	-25.784	19.348	-7.37921	
7.14866	-25.2752	19.1511	-7.55719	
7.15365	-24.8925	18.9359	-7.48316	
7.15864	-24.5656	18.7058	-7.28192	
7.16363	-24.1623	18.525	-7.3291	
7.16863	-23.7489	18.3842	-7.50403	
7.17362	-23.4747	18.2202	-7.4292	
7.17861	-23.2592	18.0535	-7.2298	
7.1836	-22.9479	17.9285	-7.28284	
7.1886	-22.6185	17.8221	-7.45599	
7.19359	-22.4056	17.686	-7.38196	
7.19858	-22.2303	17.5438	-7.19336	
7.20357	-21.9556	17.4323	-7.24927	
7.20856	-21.6564	17.3391	-7.41937	
7.21356	-21.4682	17.2215	-7.34192	
7.21855	-21.3115	17.0853	-7.1557	
7.22354	-21.0441	16.976	-7.20978	
7.22853	-20.7338	16.8787	-7.37427	
7.23352	-20.5231	16.7492	-7.29523	
7.23852	-20.3242	16.598	-7.1084	
7.24351	-20	16.4642	-7.16345	
7.2485	-19.6364	16.3433	-7.3186	
7.25349	-19.3803	16.2005	-7.24567	
7.25848	-19.1594	16.0366	-7.06329	
7.26348	-18.8392	15.9034	-7.10852	
7.26847	-18.4843	15.7861	-7.25287	
7.27346	-18.2175	15.6308	-7.16736	
7.27845	-17.9739	15.4527	-6.98822	
7.28344	-17.6135	15.305	-7.02478	
7.28844	-17.2101	15.1681	-7.15601	
7.29343	-16.8997	14.9863	-7.06183	
7.29842	-16.6026	14.7896	-6.86444	
7.30341	-16.1857	14.613	-6.89496	
7.3084	-15.7234	14.441	-7.02222	
7.3134	-15.3502	14.2507	-6.93329	
7.31839	-15.0211	14.043	-6.758	
7.32338	-14.5958	13.864	-6.78314	
7.32837	-14.1453	13.7064	-6.89386	
7.33337	-13.8067	13.5253	-6.80884	
7.33836	-13.506	13.3372	-6.63141	
7.34335	-13.1247	13.1794	-6.65289	
7.34834	-12.718	13.0401	-6.76587	
7.35333	-12.4027	12.877	-6.67426	
7.35833	-12.1345	12.7078	-6.4964	
7.36332	-11.7882	12.5644	-6.51227	
7.36831	-11.407	12.437	-6.60822	
7.3733	-11.1223	12.2866	-6.51441	
7.37829	-10.8656	12.1154	-6.32758	
7.38329	-10.5164	11.9719	-6.33337	
7.38828	-10.1344	11.844	-6.43012	
7.39327	-9.84247	11.6948	-6.34113	
7.39826	-9.58606	11.5415	-6.17407	
7.40325	-9.25232	11.4059	-6.1734	
7.40825	-8.90277	11.2863	-6.25702	
7.41324	-8.64069	11.1547	-6.17133	
7.41823	-8.4184	11.0153	-5.99573	
7.42322	-8.1264	10.9052	-5.99622	
7.42821	-7.80731	10.8116	-6.07691	
7.43321	-7.58093	10.6997	-5.98889	
7.4382	-7.39179	10.5742	-5.81738	
7.44319	-7.11298	10.4586	-5.80994	
7.44818	-6.79193	10.3554	-5.86743	
7.45318	-6.54016	10.2341	-5.76648	
7.45817	-6.30914	10.0966	-5.60059	
7.46316	-5.99268	9.97669	-5.57886	
7.46815	-5.64331	9.86383	-5.62854	
7.47314	-5.36554	9.73096	-5.52008	
7.47814	-5.11078	9.57709	-5.34253	
7.48313	-4.77966	9.44867	-5.31763	
7.48812	-4.43176	9.34467	-5.34961	
7.49311	-4.17084	9.22321	-5.23877	
7.4981	-3.94507	9.09845	-5.06824	
7.5031	-3.64734	8.98541	-5.0329	
7.50809	-3.33228	8.87775	-5.05884	
7.51308	-3.09082	8.76709	-4.94415	
7.51807	-2.86664	8.6535	-4.75903	
7.52306	-2.57751	8.55438	-4.70721	
7.52806	-2.26465	8.46503	-4.71265	
7.53305	-2.02484	8.34912	-4.58502	
7.53804	-1.80176	8.22357	-4.40002	
7.54303	-1.51636	8.12787	-4.3429	
7.54802	-1.22815	8.03851	-4.34522	
7.55302	-1.0083	7.9444	-4.21906	
7.55801	-0.811462	7.85028	-4.0329	
7.563	-0.558045	7.76788	-3.96832	
7.56799	-0.297241	7.69501	-3.95593	
7.57299	-0.109863	7.61493	-3.82373	
7.57798	0.0499268	7.5329	-3.64606	
7.58297	0.265686	7.45941	-3.58447	
7.58796	0.49646	7.39484	-3.56866	
7.59295	0.662964	7.33167	-3.44458	
7.59795	0.805725	7.26819	-3.26929	
7.60294	0.995667	7.20648	-3.2063	
7.60793	1.20123	7.15064	-3.19366	
7.61292	1.35315	7.08643	-3.06763	
7.61791	1.47845	7.01819	-2.8927	
7.62291	1.66174	6.96295	-2.81549	
7.6279	1.87537	6.91834	-2.78235	
7.63289	2.04028	6.86029	-2.65155	
7.63788	2.18219	6.78552	-2.4679	
7.64287	2.37116	6.73285	-2.37805	
7.64787	2.58759	6.68854	-2.32831	
7.65286	2.75299	6.62561	-2.16931	
7.65785	2.89789	6.56097	-1.96088	
7.66284	3.10034	6.5163	-1.84546	
7.66783	3.32361	6.48285	-1.76239	
7.67283	3.50159	6.43256	-1.58478	
7.67782	3.65894	6.37616	-1.36481	
7.68281	3.85791	6.32813	-1.2273	
7.6878	4.06598	6.29138	-1.13599	
7.6928	4.22424	6.24414	-0.950073	
7.69779	4.36877	6.1983	-0.716919	
7.70278	4.56006	6.16827	-0.574341	
7.70777	4.76447	6.13989	-0.472046	
7.71276	4.91443	6.10742	-0.285584	
7.71776	5.04639	6.06604	-0.0556641	
7.72275	5.22015	6.0379	0.0904541	
7.72774	5.40595	6.02698	0.193481	
7.73273	5.54419	5.99719	0.371094	
7.73772	5.65869	5.9599	0.587708	
7.74272	5.81342	5.94678	0.732971	
7.74771	5.97705	5.9372	0.833923	
7.7527	6.10248	5.91962	1.00818	
7.75769	6.21259	5.90167	1.21802	
7.76268	6.34485	5.89264	1.34674	
7.76768	6.49194	5.89105	1.44598	
7.77267	6.59906	5.87878	1.61359	
7.77766	6.68549	5.86285	1.80688	
7.78265	6.81317	5.85993	1.93439	
7.78764	6.94476	5.86102	2.02551	
7.79264	7.03626	5.85089	2.18073	
7.79763	7.11816	5.84143	2.36585	
7.80262	7.23608	5.84247	2.49127	
7.80761	7.37238	5.84973	2.59021	
7.81261	7.46808	5.85065	2.74316	
7.8176	7.55444	5.8421	2.93066	
7.82259	7.67523	5.85046	3.06866	
7.82758	7.79321	5.86072	3.17651	
7.83257	7.88171	5.85523	3.33417	
7.83757	7.96735	5.85016	3.5238	
7.84256	8.08252	5.86139	3.65656	
7.84755	8.20709	5.87756	3.7594	
7.85254	8.29364	5.87763	3.91846	
7.85753	8.362	5.87933	4.09631	
7.86253	8.46729	5.89728	4.21588	
7.86752	8.5871	5.91467	4.31128	
7.87251	8.67407	5.91681	4.47144	
7.8775	8.75781	5.91974	4.67011	
7.88249	8.87567	5.94305	4.81982	
7.88749	9.00061	5.96814	4.9419	
7.89248	9.09845	5.98285	5.1297	
7.89747	9.19129	5.99768	5.35346	
7.90246	9.31885	6.0202	5.51856	
7.90745	9.45575	6.04804	5.65643	
7.91245	9.5578	6.06677	5.84259	
7.91744	9.646	6.08392	6.047	
7.92243	9.76825	6.10626	6.20923	
7.92742	9.90521	6.14118	6.36322	
7.93241	10.0043	6.16956	6.55286	
7.93741	10.0858	6.18683	6.75012	
7.9424	10.2072	6.21692	6.91388	
7.94739	10.3369	6.24652	7.05988	
7.95238	10.4419	6.27625	7.25195	
7.95738	10.5413	6.3075	7.46747	
7.96237	10.6578	6.34161	7.63074	
7.96736	10.7863	6.38342	7.7771	
7.97235	10.8885	6.41718	7.97229	
7.97734	10.9822	6.44507	8.1789	
7.98234	11.1026	6.48242	8.34796	
7.98733	11.2292	6.52252	8.49176	
7.99232	11.3289	6.55597	8.67462	
7.99731	11.4235	6.59192	8.8891	
8.0023	11.5424	6.63617	9.05969	
8.0073	11.6658	6.67835	9.20825	
8.01229	11.7676	6.71661	9.39526	
8.01728	11.8633	6.75342	9.60675	
8.02227	11.9919	6.79981	9.78455	
8.02726	12.1301	6.84863	9.94171	
8.03226	12.2377	6.8963	10.1443	
8.03725	12.351	6.94244	10.3716	
8.04224	12.496	6.99005	10.5609	
8.04723	12.6343	7.0401	10.7293	
8.05222	12.7487	7.09412	10.935	
8.05722	12.8618	7.15302	11.1641	
8.06221	12.9937	7.20398	11.3504	
8.0672	13.1287	7.25928	11.5101	
8.07219	13.2438	7.31317	11.7132	
8.07719	13.3532	7.36469	11.9315	
8.08218	13.4782	7.41937	12.0918	
8.08717	13.6047	7.47345	12.2327	
8.09216	13.7063	7.52326	12.4171	
8.09715	13.8048	7.57318	12.6082	
8.10215	13.9141	7.62634	12.7546	
8.10714	14.0275	7.67603	12.8817	
8.11213	14.1257	7.71881	13.0423	
8.11712	14.2109	7.76196	13.2185	
8.12211	14.3155	7.81024	13.358	
8.12711	14.4251	7.86359	13.4816	
8.1321	14.512	7.91242	13.6305	
8.13709	14.591	7.95801	13.7885	
8.14208	14.6934	8.00983	13.9185	
8.14707	14.8022	8.05621	14.0298	
8.15207	14.8941	8.09589	14.1708	
8.15706	14.976	8.14099	14.3445	
8.16205	15.0822	8.19959	14.4916	
8.16704	15.2113	8.25641	14.6283	
8.17203	15.3184	8.31354	14.7973	
8.17703	15.4189	8.36725	14.9712	
8.18202	15.5423	8.42462	15.1188	
8.18701	15.6586	8.48895	15.2509	
8.192	15.7609	8.54199	15.4184	
8.197	15.8731	8.59906	15.611	
8.20199	16.0018	8.6626	15.7653	
8.20698	16.1345	8.72455	15.9047	
8.21197	16.2497	8.78766	16.0822	
8.21696	16.3574	8.84851	16.2652	
8.22196	16.4785	8.90759	16.4112	
8.22695	16.6044	8.96967	16.544	
8.23194	16.7132	9.02893	16.6973	
8.23693	16.814	9.07837	16.8711	
8.24192	16.9287	9.13886	17.0185	
8.24692	17.0475	9.20123	17.1332	
8.25191	17.1445	9.25031	17.2682	
8.2569	17.2225	9.29633	17.4102	
8.26189	17.3141	9.3371	17.5147	
8.26688	17.4044	9.38367	17.595	
8.27188	17.467	9.42658	17.6957	
8.27687	17.5355	9.46594	17.8132	
8.28186	17.6258	9.50177	17.9077	
8.28685	17.7173	9.54242	17.9852	
8.29184	17.7845	9.58722	18.091	
8.29684	17.8497	9.62463	18.2147	
8.30183	17.9365	9.6651	18.3038	
8.30682	18.0224	9.70953	18.3699	
8.31181	18.0891	9.74524	18.4581	
8.31681	18.1426	9.77039	18.5554	
8.3218	18.2014	9.79834	18.6226	
8.32679	18.2604	9.82666	18.6676	
8.33178	18.3093	9.85437	18.7297	
8.33677	18.3414	9.8747	18.7993	
8.34177	18.3831	9.89649	18.8364	
8.34676	18.4339	9.91846	18.8657	
8.35175	18.4637	9.93659	18.922	
8.35674	18.4918	9.94904	18.9868	
8.36173	18.5386	9.97205	19.0331	
8.36673	18.6023	10.008	19.0732	
8.37172	18.6517	10.0337	19.1366	
8.37671	18.7016	10.0602	19.2258	
8.3817	18.7714	10.095	19.3097	
8.38669	18.8585	10.1395	19.3734	
8.39169	18.9362	10.1747	19.4605	
8.39668	18.994	10.2098	19.5729	
8.40167	19.0693	10.2536	19.6619	
8.40666	19.1489	10.2878	19.7151	
8.41165	19.208	10.3173	19.7905	
8.41665	19.2578	10.3539	19.8906	
8.42164	19.3281	10.3921	19.9589	
8.42663	19.4055	10.424	20.0151	
8.43162	19.4671	10.4577	20.0982	
8.43661	19.5319	10.4942	20.1982	
8.44161	19.6146	10.535	20.2715	
8.4466	19.7012	10.5778	20.3414	
8.45159	19.7741	10.6139	20.4425	
8.45658	19.8503	10.6529	20.5535	
8.46158	19.9347	10.6972	20.6424	
8.46657	20.0262	10.7398	20.7169	
8.47156	20.1086	10.7816	20.8124	
8.47655	20.1789	10.8218	20.9208	
8.48154	20.2687	10.8704	21.0024	
8.48654	20.3635	10.914	21.0689	
8.49153	20.4438	10.9571	21.1693	
8.49652	20.5219	11.0013	21.2811	
8.50151	20.6179	11.0513	21.3732	
8.5065	20.7241	11.1025	21.4646	
8.5115	20.8225	11.1465	21.5775	
8.51649	20.9221	11.2034	21.709	
8.52148	21.0391	11.2634	21.8189	
8.52647	21.1565	11.3189	21.91	
8.53146	21.2629	11.372	22.0278	
8.53646	21.3635	11.4198	22.1584	
8.54145	21.4807	11.48	22.2704	
8.54644	21.612	11.5452	22.3713	
8.55143	21.7311	11.5981	22.4955	
8.55642	21.8585	11.6614	22.6545	
8.56142	22.0114	11.738	22.7986	
8.56641	22.1719	11.8151	22.928	
8.5714	22.3265	11.8847	23.0862	
8.57639	22.474	11.9569	23.2491	
8.58139	22.629	12.0303	23.3883	
8.58638	22.7909	12.1041	23.5161	
8.59137	22.9384	12.1717	23.652	
8.59636	23.0806	12.2415	23.8066	
8.60135	23.2304	12.3195	23.9385	
8.60635	23.3879	12.3857	24.0561	
8.61134	23.544	12.4497	24.2084	
8.61633	23.6897	12.5205	24.3615	
8.62132	23.8499	12.5905	24.4833	
8.62631	24.0237	12.6664	24.6047	
8.63131	24.177	12.7397	24.7513	
8.6363	24.3323	12.8071	24.9058	
8.64129	24.5065	12.8805	25.0352	
8.64628	24.6756	12.962	25.1545	
8.65127	24.8334	13.0359	25.3014	
8.65627	24.9946	13.0997	25.4507	
8.66126	25.1702	13.1802	25.5828	
8.66625	25.3579	13.2598	25.7145	
8.67124	25.5372	13.335	25.8691	
8.67623	25.7199	13.4144	26.0293	
8.68123	25.9214	13.5007	26.1743	
8.68622	26.1249	13.5869	26.316	
8.69121	26.3156	13.6707	26.4663	
8.6962	26.5134	13.7576	26.622	
8.7012	26.7287	13.8401	26.7694	
8.70619	26.9433	13.9299	26.916	
8.71118	27.153	14.0164	27.0756	
8.71617	27.3713	14.0974	27.2426	
8.72116	27.5913	14.1794	27.3873	
8.72616	27.8024	14.2667	27.5129	
8.73115	28.0096	14.351	27.658	
8.73614	28.2184	14.4296	27.8148	
8.74113	28.4407	14.5212	27.9523	
8.74612	28.6633	14.6075	28.0802	
8.75112	28.8743	14.6843	28.2153	
8.75611	29.0892	14.7656	28.368	
8.7611	29.3242	14.8543	28.5166	
8.76609	29.5714	14.9428	28.6473	
8.77108	29.8076	15.0312	28.7908	
8.77608	30.0426	15.1218	28.9476	
8.78107	30.2946	15.2105	29.0989	
8.78606	30.5491	15.3063	29.2352	
8.79105	30.8081	15.3992	29.3817	
8.79604	31.0704	15.4937	29.5478	
8.80104	31.3535	15.593	29.6978	
8.80603	31.6643	15.6889	29.8415	
8.81102	31.9722	15.7928	30.0111	
8.81601	32.2738	15.894	30.1826	
8.82101	32.582	15.9975	30.3273	
8.826	32.9096	16.1039	30.4773	
8.83099	33.2543	16.1985	30.651	
8.83598	33.6066	16.3096	30.8259	
8.84097	33.976	16.4368	30.9967	
8.84597	34.3611	16.5695	31.1599	
8.85096	34.7397	16.6971	31.3317	
8.85595	35.1238	16.8104	31.5115	
8.86094	35.5289	16.9318	31.6786	
8.86593	35.9462	17.0649	31.839	
8.87093	36.3571	17.1814	31.9992	
8.87592	36.7655	17.2997	32.1707	
8.88091	37.2051	17.4279	32.3354	
8.8859	37.6662	17.5545	32.4993	
8.89089	38.1339	17.6868	32.6728	
8.89589	38.6118	17.8166	32.8391	
8.90088	39.109	17.9531	32.9991	
8.90587	39.628	18.0947	33.1549	
8.91086	40.153	18.2349	33.3234	
8.91585	40.6842	18.3722	33.5026	
8.92085	41.2412	18.5138	33.6659	
8.92584	41.8214	18.6571	33.8137	
8.93083	42.4114	18.8002	33.9657	
8.93582	43.0185	18.9552	34.1301	
8.94082	43.6573	19.1069	34.2809	
8.94581	44.3313	19.2626	34.4288	
8.9508	45.0299	19.4325	34.5895	
8.95579	45.7492	19.6014	34.7479	
8.96078	46.4913	19.7606	34.8964	
8.96578	47.265	19.921	35.0312	
8.97077	48.0521	20.0937	35.1714	
8.97576	48.8606	20.277	35.3142	
8.98075	49.6978	20.4655	35.4426	
8.98574	50.5559	20.6501	35.5562	
8.99074	51.4292	20.8351	35.6703	
8.99573	52.3102	21.0176	35.7766	
9.00072	53.2106	21.2027	35.8699	
9.00571	54.1191	21.3875	35.9551	
9.0107	55.027	21.5657	36.0329	
9.0157	55.932	21.7427	36.113	
9.02069	56.8486	21.918	36.1788	
9.02568	57.7864	22.0951	36.2274	
9.03067	58.738	22.2808	36.2762	
9.03566	59.7121	22.4644	36.3204	
9.04066	60.718	22.6479	36.3487	
9.04565	61.7432	22.8345	36.3655	
9.05064	62.7731	23.0158	36.3796	
9.05563	63.8232	23.1966	36.3861	
9.06062	64.9056	23.3893	36.3721	
9.06562	66.018	23.5874	36.3436	
9.07061	67.1767	23.7825	36.3119	
9.0756	68.3684	23.9872	36.2662	
9.08059	69.5997	24.1933	36.1979	
9.08559	70.8755	24.3928	36.1047	
9.09058	72.1813	24.5944	35.9961	
9.09557	73.5326	24.8007	35.875	
9.10056	74.919	25.0004	35.7186	
9.10555	76.3232	25.1801	35.5406	
9.11055	77.7342	25.351	35.342	
9.11554	79.1403	25.5215	35.1189	
9.12053	80.5453	25.684	34.871	
9.12552	81.936	25.834	34.5944	
9.13051	83.2979	25.9587	34.3026	
9.13551	84.627	26.0668	33.9987	
9.1405	85.9185	26.1702	33.6793	
9.14549	87.1618	26.2563	33.3438	
9.15048	88.3447	26.3254	33.005	
9.15547	89.4606	26.3856	32.6732	
9.16047	90.5074	26.4282	32.3438	
9.16546	91.4796	26.4618	32.0168	
9.17045	92.3953	26.492	31.6914	
9.17544	93.2893	26.5111	31.365	
9.18043	94.1497	26.5253	31.0369	
9.18543	94.9795	26.531	30.7054	
9.19042	95.799	26.5392	30.3755	
9.19541	96.6085	26.5424	30.0372	
9.2004	97.428	26.5317	29.6838	
9.2054	98.2583	26.5251	29.3151	
9.21039	99.0928	26.5114	28.9276	
9.21538	99.9636	26.4926	28.5187	
9.22037	100.883	26.4719	28.0764	
9.22536	101.833	26.4366	27.5973	
9.23036	102.809	26.3913	27.0959	
9.23535	103.824	26.3289	26.5702	
9.24034	104.869	26.2574	26.0088	
9.24533	105.927	26.191	25.4102	
9.25032	107.003	26.111	24.7897	
9.25532	108.09	26.0148	24.1519	
9.26031	109.181	25.912	23.4861	
9.2653	110.266	25.7979	22.8062	
9.27029	111.344	25.6797	22.1066	
9.27528	112.431	25.5646	21.3997	
9.28028	113.499	25.4463	20.703	
9.28527	114.504	25.3088	20.0049	
9.29026	115.476	25.1689	19.3233	
9.29525	116.429	25.0325	18.6498	
9.30024	117.357	24.8918	17.975	
9.30524	118.261	24.7508	17.3212	
9.31023	119.134	24.6082	16.6725	
9.31522	119.994	24.4724	16.0264	
9.32021	120.844	24.3313	15.3824	
9.32521	121.679	24.183	14.7307	
9.3302	122.487	24.0468	14.0913	
9.33519	123.274	23.9012	13.4691	
9.34018	124.047	23.7491	12.845	
9.34517	124.805	23.6188	12.2232	
9.35017	125.535	23.4802	11.6198	
9.35516	126.238	23.3351	11.0375	
9.36015	126.939	23.2061	10.4605	
9.36514	127.63	23.0808	9.87714	
9.37013	128.334	22.9455	9.27936	
9.37513	129.058	22.8043	8.66449	
9.38012	129.784	22.6627	8.03015	
9.38511	130.534	22.5163	7.36975	
9.3901	131.302	22.3525	6.69208	
9.39509	132.087	22.1831	5.99597	
9.40009	132.9	22.0238	5.27887	
9.40508	133.705	21.859	4.55103	
9.41007	134.487	21.6877	3.83295	
9.41506	135.241	21.5239	3.14471	
9.42005	135.953	21.3696	2.49054	
9.42505	136.634	21.2199	1.85382	
9.43004	137.288	21.0801	1.23419	
9.43503	137.929	20.9429	0.635742	
9.44002	138.549	20.805	0.0579224	
9.44502	139.133	20.6743	-0.504273	
9.45001	139.706	20.541	-1.06628	
9.455	140.287	20.41	-1.62891	
9.45999	140.887	20.2867	-2.20435	
9.46498	141.494	20.1524	-2.79999	
9.46998	142.086	20.019	-3.40576	
9.47497	142.716	19.8801	-4.02423	
9.47996	143.378	19.7241	-4.66705	
9.48495	144.037	19.5712	-5.33154	
9.48994	144.706	19.4222	-6.01349	
9.49494	145.387	19.2641	-6.71777	
9.49993	146.087	19.0956	-7.43042	
9.50492	146.791	18.9229	-8.16571	
9.50991	147.501	18.754	-8.91754	
9.5149	148.223	18.5865	-9.6651	
9.5199	148.928	18.4139	-10.409	
9.52489	149.605	18.2452	-11.1389	
9.52988	150.292	18.0758	-11.8686	
9.53487	150.96	17.9041	-12.5997	
9.53986	151.591	17.7393	-13.3121	
9.54486	152.222	17.5809	-14.0119	
9.54985	152.842	17.4263	-14.7036	
9.55484	153.447	17.2687	-15.3928	
9.55983	154.056	17.1103	-16.0833	
9.56483	154.651	16.9559	-16.7816	
9.56982	155.229	16.7988	-17.4695	
9.57481	155.784	16.647	-18.1391	
9.5798	156.345	16.4963	-18.8283	
9.58479	156.927	16.3386	-19.5351	
9.58979	157.5	16.1845	-20.2405	
9.59478	158.058	16.0281	-20.9496	
9.59977	158.589	15.8652	-21.6483	
9.60476	159.125	15.7061	-22.3533	
9.60975	159.656	15.5465	-23.0623	
9.61475	160.16	15.382	-23.7582	
9.61974	160.666	15.2181	-24.4645	
9.62473	161.155	15.0554	-25.1702	
9.62972	161.627	14.8906	-25.8776	
9.63471	162.091	14.7261	-26.5892	
9.63971	162.529	14.5651	-27.3069	
9.6447	162.952	14.4031	-28.0221	
9.64969	163.355	14.239	-28.7172	
9.65468	163.736	14.0798	-29.4121	
9.65967	164.092	13.921	-30.1042	
9.66467	164.425	13.7628	-30.7821	
9.66966	164.74	13.6019	-31.4526	
9.67465	165.001	13.4467	-32.1008	
9.67964	165.237	13.2949	-32.7364	
9.68463	165.456	13.1417	-33.3597	
9.68963	165.619	12.9999	-33.939	
9.69462	165.756	12.8604	-34.4965	
9.69961	165.861	12.7287	-35.0371	
9.7046	165.943	12.6011	-35.5621	
9.7096	166.001	12.4751	-36.0713	
9.71459	166.03	12.3476	-36.5615	
9.71958	166.039	12.21	-37.0635	
9.72457	165.999	12.0834	-37.5606	
9.72956	165.948	11.9494	-38.0653	
9.73456	165.869	11.8126	-38.5786	
9.73955	165.732	11.6818	-39.0757	
9.74454	165.569	11.5374	-39.571	
9.74953	165.347	11.3853	-40.068	
9.75452	165.081	11.2419	-40.556	
9.75952	164.785	11.1043	-41.0246	
9.76451	164.429	10.9516	-41.4862	
9.7695	164.018	10.8034	-41.932	
9.77449	163.545	10.6666	-42.3457	
9.77948	163.032	10.5205	-42.7473	
9.78448	162.472	10.3729	-43.1339	
9.78947	161.859	10.2374	-43.488	
9.79446	161.206	10.0941	-43.829	
9.79945	160.517	9.95599	-44.1522	
9.80444	159.805	9.81842	-44.4554	
9.80944	159.043	9.67529	-44.7334	
9.81443	158.231	9.53656	-45.0012	
9.81942	157.378	9.40003	-45.2559	
9.82441	156.494	9.25745	-45.4906	
9.82941	155.559	9.10626	-45.7138	
9.8344	154.576	8.96948	-45.903	
9.83939	153.578	8.83215	-46.0754	
9.84438	152.548	8.68134	-46.2456	
9.84937	151.471	8.52759	-46.3976	
9.85437	150.361	8.38092	-46.5248	
9.85936	149.235	8.2395	-46.6478	
9.86435	148.073	8.09668	-46.7621	
9.86934	146.872	7.94238	-46.8524	
9.87433	145.669	7.7876	-46.9338	
9.87933	144.413	7.63471	-47.0039	
9.88432	143.103	7.46356	-47.0631	
9.88931	141.796	7.30609	-47.1113	
9.8943	140.472	7.14649	-47.1503	
9.89929	139.131	6.97431	-47.1868	
9.90429	137.776	6.80566	-47.2103	
9.90928	136.386	6.63452	-47.2155	
9.91427	134.951	6.46448	-47.2123	
9.91926	133.472	6.28375	-47.2183	
9.92425	131.963	6.09753	-47.2044	
9.92925	130.45	5.90729	-47.1772	
9.93424	128.946	5.71802	-47.1486	
9.93923	127.477	5.51428	-47.1096	
9.94422	126.047	5.30841	-47.0679	
9.94922	124.639	5.12927	-47.0176	
9.95421	123.24	4.94403	-46.9722	
9.9592	121.816	4.7439	-46.927	
9.96419	120.345	4.54828	-46.8705	
9.96918	118.829	4.3432	-46.8211	
9.97418	117.254	4.12128	-46.7622	
9.97917	115.64	3.88538	-46.6862	
9.98416	113.998	3.64349	-46.6099	
9.98915	112.353	3.3971	-46.5361	
9.99414	110.727	3.14606	-46.4522	
9.99914	109.113	2.8894	-46.3627	
10.0041	107.503	2.62927	-46.2776	
10.0091	105.912	2.37195	-46.1873	
10.0141	104.32	2.10785	-46.0999	
10.0191	102.717	1.83575	-46.0119	
10.0241	101.115	1.56366	-45.9068	
10.0291	99.5274	1.27832	-45.8021	
10.0341	97.9754	0.979248	-45.6971	
10.0391	96.4564	0.689941	-45.5916	
10.0441	94.9706	0.416504	-45.4918	
10.0491	93.5297	0.145508	-45.3834	
10.054	92.1272	-0.131226	-45.2701	
10.059	90.7536	-0.409668	-45.1666	
10.064	89.4201	-0.685547	-45.0628	
10.069	88.1265	-0.95697	-44.9536	
10.074	86.8887	-1.21979	-44.8431	
10.079	85.719	-1.47278	-44.7417	
10.084	84.6226	-1.71332	-44.6455	
10.089	83.604	-1.93964	-44.5422	
10.094	82.6474	-2.14954	-44.4445	
10.099	81.7652	-2.34363	-44.3533	
10.104	80.9403	-2.53046	-44.2704	
10.109	80.1655	-2.70215	-44.1906	
10.114	79.443	-2.86481	-44.1092	
10.1189	78.7343	-3.02521	-44.0319	
10.1239	78.0256	-3.18219	-43.9592	
10.1289	77.2959	-3.34601	-43.8752	
10.1339	76.5281	-3.51544	-43.7877	
10.1389	75.7353	-3.69684	-43.7013	
10.1439	74.9035	-3.89142	-43.603	
10.1489	74.0175	-4.09717	-43.5029	
10.1539	73.0776	-4.31409	-43.3973	
10.1589	72.0787	-4.54443	-43.2715	
10.1639	71.0259	-4.79651	-43.1339	
10.1689	69.9328	-5.05634	-42.9874	
10.1739	68.7957	-5.32068	-42.8343	
10.1789	67.624	-5.60388	-42.671	
10.1838	66.4428	-5.8974	-42.4987	
10.1888	65.2561	-6.17712	-42.3277	
10.1938	64.0891	-6.45233	-42.1425	
10.1988	62.9587	-6.72089	-41.9533	
10.2038	61.8709	-6.97992	-41.7801	
10.2088	60.8325	-7.22516	-41.609	
10.2138	59.8474	-7.45514	-41.4385	
10.2188	58.9334	-7.68121	-41.2757	
10.2238	58.0824	-7.88715	-41.1197	
10.2288	57.2836	-8.07398	-40.9742	
10.2338	56.5453	-8.24707	-40.8233	
10.2388	55.8488	-8.4057	-40.6807	
10.2437	55.1874	-8.56238	-40.5609	
10.2487	54.555	-8.70233	-40.4387	
10.2537	53.9492	-8.82953	-40.3093	
10.2587	53.3688	-8.9671	-40.1878	
10.2637	52.7975	-9.09369	-40.0771	
10.2687	52.2496	-9.20807	-39.9544	
10.2737	51.718	-9.33008	-39.8359	
10.2787	51.1895	-9.4466	-39.7182	
10.2837	50.6444	-9.56024	-39.5966	
10.2887	50.0781	-9.68616	-39.4769	
10.2937	49.5025	-9.80878	-39.3458	
10.2987	48.9039	-9.9212	-39.2038	
10.3037	48.2975	-10.049	-39.06	
10.3086	47.6776	-10.1879	-38.9197	
10.3136	47.0478	-10.3109	-38.7606	
10.3186	46.4191	-10.433	-38.5967	
10.3236	45.7747	-10.5684	-38.4423	
10.3286	45.1156	-10.6985	-38.2747	
10.3336	44.46	-10.821	-38.0925	
10.3386	43.8084	-10.9459	-37.9205	
10.3436	43.1511	-11.0671	-37.7492	
10.3486	42.4985	-11.19	-37.5756	
10.3536	41.8461	-11.3106	-37.396	
10.3586	41.1874	-11.4263	-37.2087	
10.3636	40.5251	-11.5375	-37.0177	
10.3685	39.8588	-11.6492	-36.8194	
10.3735	39.186	-11.76	-36.6175	
10.3785	38.519	-11.863	-36.4123	
10.3835	37.8749	-11.965	-36.2152	
10.3885	37.2425	-12.061	-36.0273	
10.3935	36.6202	-12.1511	-35.8298	
10.3985	36.0145	-12.2391	-35.6314	
10.4035	35.4143	-12.3265	-35.4403	
10.4085	34.8116	-12.41	-35.2422	
10.4135	34.2059	-12.4832	-35.0418	
10.4185	33.5997	-12.5587	-34.8328	
10.4235	32.9916	-12.6338	-34.6237	
10.4285	32.3785	-12.7063	-34.4094	
10.4334	31.7512	-12.7755	-34.181	
10.4384	31.1147	-12.8422	-33.9492	
10.4434	30.4783	-12.904	-33.7184	
10.4484	29.8382	-12.9675	-33.4825	
10.4534	29.1913	-13.0332	-33.2342	
10.4584	28.5518	-13.0886	-32.984	
10.4634	27.9292	-13.1394	-32.7337	
10.4684	27.3216	-13.1794	-32.4855	
10.4734	26.727	-13.2119	-32.2441	
10.4784	26.1456	-13.2499	-32.0044	
10.4834	25.5656	-13.279	-31.7601	
10.4884	24.9799	-13.302	-31.514	
10.4934	24.3824	-13.3329	-31.2508	
10.4983	23.7622	-13.3634	-30.974	
10.5033	23.1137	-13.3943	-30.6895	
10.5083	22.4387	-13.4114	-30.3816	
10.5133	21.7327	-13.4196	-30.0547	
10.5183	20.9912	-13.4326	-29.7094	
10.5233	20.2275	-13.4395	-29.3514	
10.5283	19.4413	-13.4349	-28.978	
10.5333	18.6407	-13.4239	-28.5862	
10.5383	17.847	-13.4041	-28.1846	
10.5433	17.059	-13.3854	-27.7839	
10.5483	16.275	-13.3624	-27.3834	
10.5533	15.5061	-13.3237	-26.9726	
10.5582	14.7717	-13.2827	-26.5708	
10.5632	14.0585	-13.2438	-26.1936	
10.5682	13.3666	-13.2039	-25.821	
10.5732	12.706	-13.16	-25.4434	
10.5782	12.0505	-13.1075	-25.067	
10.5832	11.3987	-13.053	-24.6912	
10.5882	10.7421	-12.9959	-24.3123	
10.5932	10.0849	-12.9291	-23.9261	
10.5982	9.43402	-12.8589	-23.5414	
10.6032	8.78845	-12.7911	-23.1597	
10.6082	8.15778	-12.7209	-22.7785	
10.6132	7.54956	-12.649	-22.4039	
10.6182	6.96478	-12.5729	-22.0373	
10.6231	6.40955	-12.4942	-21.6905	
10.6281	5.88666	-12.4206	-21.3587	
10.6331	5.3971	-12.3472	-21.0389	
10.6381	4.92529	-12.2823	-20.7403	
10.6431	4.45728	-12.2201	-20.4497	
10.6481	3.99976	-12.1483	-20.155	
10.6531	3.55219	-12.0668	-19.853	
10.6581	3.09314	-11.992	-19.5532	
10.6631	2.60803	-11.9216	-19.2412	
10.6681	2.11047	-11.8338	-18.9016	
10.6731	1.59967	-11.7396	-18.5518	
10.6781	1.07251	-11.6415	-18.1918	
10.6831	0.527954	-11.541	-17.8273	
10.688	-0.0356445	-11.4375	-17.4475	
10.693	-0.609314	-11.3287	-17.0411	
10.698	-1.19653	-11.2095	-16.6304	
10.703	-1.80872	-11.081	-16.2084	
10.708	-2.44116	-10.9554	-15.7568	
10.713	-3.08545	-10.8228	-15.29	
10.718	-3.7323	-10.6837	-14.8217	
10.723	-4.37207	-10.5341	-14.3602	
10.728	-5.0108	-10.3896	-13.8974	
10.733	-5.64435	-10.2455	-13.4246	
10.738	-6.24567	-10.0951	-12.967	
10.743	-6.84326	-9.9491	-12.5316	
10.7479	-7.42035	-9.80438	-12.093	
10.7529	-7.98047	-9.6579	-11.6532	
10.7579	-8.54413	-9.51221	-11.2343	
10.7629	-9.08905	-9.37213	-10.8191	
10.7679	-9.62079	-9.22736	-10.4055	
10.7729	-10.1346	-9.08087	-9.99719	
10.7779	-10.6332	-8.94104	-9.59839	
10.7829	-11.1229	-8.80365	-9.22278	
10.7879	-11.5963	-8.66589	-8.85181	
10.7929	-12.0561	-8.53052	-8.47516	
10.7979	-12.5179	-8.39893	-8.10541	
10.8029	-12.9782	-8.26654	-7.74329	
10.8079	-13.4396	-8.12109	-7.36395	
10.8128	-13.9047	-7.97205	-6.97449	
10.8178	-14.3721	-7.83051	-6.59448	
10.8228	-14.8301	-7.68579	-6.22656	
10.8278	-15.2715	-7.53308	-5.85339	
10.8328	-15.7084	-7.38617	-5.47565	
10.8378	-16.1473	-7.23254	-5.11499	
10.8428	-16.58	-7.08801	-4.75983	
10.8478	-17.0172	-6.9422	-4.39002	
10.8528	-17.4556	-6.78406	-4.01178	
10.8578	-17.8835	-6.63342	-3.63257	
10.8628	-18.317	-6.47522	-3.24817	
10.8678	-18.7561	-6.30597	-2.85675	
10.8727	-19.2009	-6.1239	-2.45654	
10.8777	-19.6442	-5.94995	-2.06256	
10.8827	-20.0772	-5.78052	-1.67639	
10.8877	-20.5084	-5.59851	-1.27826	
10.8927	-20.9333	-5.4162	-0.874939	
10.8977	-21.3527	-5.23627	-0.479614	
10.9027	-21.7794	-5.04529	-0.0810547	
10.9077	-22.2007	-4.85272	0.330811	
10.9127	-22.6123	-4.64923	0.749512	
10.9177	-23.0193	-4.4386	1.15088	
10.9227	-23.4031	-4.23853	1.53546	
10.9277	-23.7659	-4.03937	1.92651	
10.9327	-24.1122	-3.83405	2.30475	
10.9376	-24.4411	-3.63257	2.65906	
10.9426	-24.7524	-3.44818	3.00549	
10.9476	-25.0443	-3.25958	3.34784	
10.9526	-25.3145	-3.06787	3.68408	
10.9576	-25.5737	-2.87756	4.00256	
10.9626	-25.8153	-2.68842	4.29688	
10.9676	-26.0321	-2.50037	4.59076	
10.9726	-26.236	-2.3158	4.88599	
10.9776	-26.4182	-2.14453	5.14032	
10.9826	-26.5845	-1.98254	5.37695	
10.9876	-26.7325	-1.81299	5.62891	
10.9926	-26.8571	-1.64008	5.86939	
10.9976	-26.9715	-1.47449	6.08276	
11.0025	-27.0864	-1.31091	6.28644	
11.0075	-27.1834	-1.14502	6.4986	
11.0125	-27.265	-0.977295	6.70837	
11.0175	-27.3402	-0.813721	6.89172	
11.0225	-27.3997	-0.65033	7.06653	
11.0275	-27.4467	-0.487976	7.24597	
11.0325	-27.4815	-0.327637	7.42169	
11.0375	-27.5034	-0.1651	7.59277	
11.0425	-27.5137	-0.00195313	7.74463	
11.0475	-27.5173	0.164307	7.89295	
11.0525	-27.5083	0.335449	8.05322	
11.0575	-27.4889	0.495361	8.18866	
11.0624	-27.4545	0.655274	8.30365	
11.0674	-27.4056	0.821594	8.42462	
11.0724	-27.347	0.986267	8.55432	
11.0774	-27.2758	1.14667	8.66449	
11.0824	-27.1995	1.30994	8.74317	
11.0874	-27.1092	1.48853	8.84259	
11.0924	-27.0034	1.66693	8.94519	
11.0974	-26.8902	1.83984	9.01892	
11.1024	-26.7753	2.00659	9.07605	
11.1074	-26.6493	2.16992	9.13855	
11.1124	-26.5058	2.33539	9.21344	
11.1174	-26.374	2.49011	9.2605	
11.1224	-26.245	2.64398	9.27496	
11.1273	-26.0989	2.80109	9.30902	
11.1323	-25.9537	2.95721	9.35858	
11.1373	-25.8018	3.10333	9.37482	
11.1423	-25.6574	3.23285	9.36902	
11.1473	-25.5087	3.38001	9.38953	
11.1523	-25.3483	3.53461	9.41919	
11.1573	-25.2015	3.65985	9.41376	
11.1623	-25.0563	3.77802	9.39209	
11.1673	-24.9124	3.91254	9.39325	
11.1723	-24.7592	4.05261	9.40326	
11.1773	-24.6169	4.18109	9.38971	
11.1823	-24.4958	4.2851	9.35614	
11.1873	-24.3588	4.39471	9.34735	
11.1922	-24.2231	4.51135	9.35675	
11.1972	-24.1036	4.60803	9.32172	
11.2022	-23.986	4.70984	9.27661	
11.2072	-23.8671	4.81824	9.2638	
11.2122	-23.7419	4.92664	9.26148	
11.2172	-23.6183	5.03723	9.22644	
11.2222	-23.4908	5.13391	9.16773	
11.2272	-23.3552	5.24597	9.14533	
11.2322	-23.2086	5.37994	9.14447	
11.2372	-23.0615	5.49963	9.10333	
11.2422	-22.9156	5.61737	9.03607	
11.2472	-22.7639	5.75873	8.99671	
11.2521	-22.5992	5.91083	8.97058	
11.2571	-22.4399	6.04712	8.90509	
11.2621	-22.2955	6.16571	8.81867	
11.2671	-22.1351	6.30786	8.7724	
11.2721	-21.9783	6.46619	8.7475	
11.2771	-21.8375	6.59985	8.68512	
11.2821	-21.6978	6.71613	8.59918	
11.2871	-21.5611	6.85785	8.54681	
11.2921	-21.4292	7.00678	8.51788	
11.2971	-21.3026	7.12384	8.44751	
11.3021	-21.1808	7.23621	8.35162	
11.3071	-21.054	7.36505	8.29981	
11.3121	-20.93	7.5044	8.27283	
11.317	-20.8182	7.62518	8.20319	
11.322	-20.7089	7.7403	8.10492	
11.327	-20.5894	7.87872	8.05805	
11.332	-20.4694	8.02869	8.03412	
11.337	-20.3558	8.15942	7.95569	
11.342	-20.2405	8.28516	7.84729	
11.347	-20.1198	8.4372	7.78845	
11.352	-19.9981	8.60449	7.75488	
11.357	-19.8903	8.74683	7.6684	
11.362	-19.7916	8.8761	7.55481	
11.367	-19.6773	9.03015	7.48639	
11.372	-19.5645	9.19629	7.44861	
11.377	-19.47	9.35108	7.36438	
11.3819	-19.3842	9.48602	7.25122	
11.3869	-19.2914	9.63519	7.19061	
11.3919	-19.1923	9.79657	7.16126	
11.3969	-19.1071	9.93359	7.07568	
11.4019	-19.03	10.0656	6.96014	
11.4069	-18.9482	10.2203	6.9021	
11.4119	-18.8608	10.3855	6.87238	
11.4169	-18.7837	10.5397	6.78589	
11.4219	-18.7131	10.6824	6.66022	
11.4269	-18.6354	10.8511	6.59882	
11.4319	-18.55	11.0374	6.56769	
11.4369	-18.4787	11.1965	6.46729	
11.4418	-18.42	11.348	6.34601	
11.4468	-18.3468	11.5206	6.28516	
11.4518	-18.2723	11.7021	6.26007	
11.4568	-18.2148	11.864	6.17871	
11.4618	-18.1567	12.0164	6.05652	
11.4668	-18.0986	12.2036	5.99463	
11.4718	-18.0328	12.4064	5.97339	
11.4768	-17.9695	12.5843	5.87708	
11.4818	-17.9254	12.7503	5.74585	
11.4868	-17.8721	12.9434	5.68805	
11.4918	-17.8093	13.1605	5.6618	
11.4968	-17.7645	13.3553	5.56836	
11.5018	-17.7302	13.5372	5.43506	
11.5067	-17.6741	13.7543	5.37457	
11.5117	-17.6152	13.9907	5.3523	
11.5167	-17.5767	14.2007	5.2478	
11.5217	-17.5471	14.4059	5.10669	
11.5267	-17.4999	14.6442	5.04627	
11.5317	-17.4524	14.9028	5.02167	
11.5367	-17.4244	15.1208	4.92621	
11.5417	-17.3996	15.3198	4.78656	
11.5467	-17.3657	15.5609	4.72565	
11.5517	-17.328	15.8095	4.71332	
11.5567	-17.3035	16.0222	4.62598	
11.5617	-17.298	16.2111	4.49341	
11.5666	-17.278	16.4262	4.44293	
11.5716	-17.2427	16.6616	4.45215	
11.5766	-17.2288	16.8591	4.37109	
11.5816	-17.2326	17.0461	4.23999	
11.5866	-17.2145	17.2741	4.20306	
11.5916	-17.1817	17.5212	4.20874	
11.5966	-17.1751	17.7369	4.1192	
11.6016	-17.1787	17.9388	3.98071	
11.6066	-17.1614	18.2028	3.93494	
11.6116	-17.1355	18.5007	3.94049	
11.6166	-17.136	18.7616	3.84637	
11.6216	-17.1446	19.0161	3.69959	
11.6266	-17.1339	19.3304	3.64508	
11.6315	-17.1149	19.6677	3.63812	
11.6365	-17.1176	19.9686	3.53394	
11.6415	-17.1335	20.2712	3.37579	
11.6465	-17.1348	20.6238	3.31726	
11.6515	-17.121	21.0139	3.31689	
11.6565	-17.1331	21.3776	3.20691	
11.6615	-17.1641	21.7218	3.03339	
11.6665	-17.1656	22.1259	2.96497	
11.6715	-17.1653	22.5725	2.95905	
11.6765	-17.1891	22.9761	2.84143	
11.6815	-17.2247	23.3669	2.65961	
11.6865	-17.2455	23.8176	2.5929	
11.6915	-17.2535	24.2891	2.5968	
11.6964	-17.286	24.7116	2.47961	
11.7014	-17.3345	25.1244	2.2973	
11.7064	-17.3649	25.6124	2.24377	
11.7114	-17.3762	26.1487	2.24689	
11.7164	-17.4231	26.6434	2.11951	
11.7214	-17.5	27.1289	1.92676	
11.7264	-17.5314	27.7011	1.86517	
11.7314	-17.5543	28.3276	1.86108	
11.7364	-17.6271	28.9168	1.71826	
11.7414	-17.7153	29.5073	1.50269	
11.7464	-17.7704	30.1896	1.42792	
11.7514	-17.8168	30.9199	1.4281	
11.7563	-17.9019	31.6192	1.27222	
11.7613	-18.0009	32.3301	1.03851	
11.7663	-18.0735	33.1332	0.963989	
11.7713	-18.1459	33.9927	0.965393	
11.7763	-18.2616	34.8206	0.798828	
11.7813	-18.3936	35.6419	0.552002	
11.7863	-18.4949	36.55	0.470886	
11.7913	-18.5875	37.5161	0.469055	
11.7963	-18.72	38.4405	0.285767	
11.8013	-18.8696	39.3607	0.0212402	
11.8063	-18.9877	40.3796	-0.0519409	
11.8113	-19.1006	41.4528	-0.0488281	
11.8163	-19.2534	42.4752	-0.234314	
11.8212	-19.4308	43.4795	-0.508606	
11.8262	-19.5777	44.5689	-0.594177	
11.8312	-19.7023	45.7141	-0.574341	
11.8362	-19.8726	46.8027	-0.759705	
11.8412	-20.079	47.8777	-1.06415	
11.8462	-20.2465	49.0751	-1.14783	
11.8512	-20.3911	50.3522	-1.11346	
11.8562	-20.5886	51.5781	-1.3147	
11.8612	-20.8176	52.8113	-1.63837	
11.8662	-21.0241	54.1768	-1.72845	
11.8712	-21.2177	55.6175	-1.70435	
11.8762	-21.4562	57.0128	-1.92468	
11.8812	-21.7302	58.4144	-2.2663	
11.8861	-21.9706	59.9602	-2.36273	
11.8911	-22.2047	61.5941	-2.33508	
11.8961	-22.4926	63.1866	-2.57275	
11.9011	-22.812	64.7802	-2.94745	
11.9061	-23.0931	66.4744	-3.04749	
11.9111	-23.3546	68.2116	-3.01447	
11.9161	-23.6635	69.8505	-3.25635	
11.9211	-23.9988	71.4245	-3.63452	
11.9261	-24.2841	73.0546	-3.72693	
11.9311	-24.5328	74.7059	-3.66425	
11.9361	-24.8369	76.2503	-3.90131	
11.9411	-25.1769	77.7371	-4.2945	
11.946	-25.4669	79.335	-4.37366	
11.951	-25.7296	80.9909	-4.29871	
11.956	-26.0584	82.5582	-4.54565	
11.961	-26.4219	84.1058	-4.94934	
11.966	-26.7343	85.7853	-5.01752	
11.971	-27.0272	87.5434	-4.92194	
11.976	-27.3855	89.2341	-5.17438	
11.981	-27.7893	90.9031	-5.59583	
11.986	-28.1455	92.6853	-5.66016	
11.991	-28.4683	94.5328	-5.56018	
11.996	-28.8554	96.2915	-5.82349	
12.001	-29.2862	98.0097	-6.25189	
12.006	-29.6634	99.8562	-6.30695	
12.0109	-30.0114	101.783	-6.19507	
12.0159	-30.4285	103.624	-6.4632	
12.0209	-30.911	105.465	-6.90424	
12.0259	-31.3512	107.49	-6.96948	
12.0309	-31.7638	109.632	-6.85816	
12.0359	-32.2554	111.693	-7.14496	
12.0409	-32.7936	113.718	-7.62494	
12.0459	-33.2811	115.88	-7.69183	
12.0509	-33.7417	118.111	-7.55103	
12.0559	-34.2658	120.229	-7.82391	
12.0609	-34.8361	122.295	-8.30853	
12.0659	-35.3536	124.467	-8.3634	
12.0708	-35.8347	126.681	-8.20557	
12.0758	-36.3943	128.8	-8.49738	
12.0808	-36.9966	130.895	-8.98889	
12.0858	-37.557	133.149	-9.01984	
12.0908	-38.0966	135.498	-8.84589	
12.0958	-38.7081	137.782	-9.14288	
12.1008	-39.3919	140.069	-9.65888	
12.1058	-40.0328	142.499	-9.69324	
12.1108	-40.6504	144.99	-9.508	
12.1158	-41.3413	147.382	-9.80206	
12.1208	-42.0714	149.72	-10.3106	
12.1258	-42.7457	152.133	-10.3228	
12.1308	-43.3767	154.551	-10.0938	
12.1357	-44.054	156.801	-10.3579	
12.1407	-44.7598	158.951	-10.8625	
12.1457	-45.4153	161.176	-10.8527	
12.1507	-46.0421	163.438	-10.5873	
12.1557	-46.7177	165.581	-10.845	
12.1607	-47.4406	167.65	-11.3441	
12.1657	-48.11	169.833	-11.2922	
12.1707	-48.7387	172.054	-10.9911	
12.1757	-49.4376	174.142	-11.2376	
12.1807	-50.185	176.168	-11.7448	
12.1857	-50.8774	178.302	-11.7011	
12.1907	-51.54	180.489	-11.3911	
12.1957	-52.2647	182.545	-11.6392	
12.2006	-53.0264	184.54	-12.1555	
12.2056	-53.7345	186.625	-12.0915	
12.2106	-54.385	188.697	-11.733	
12.2156	-55.0762	190.591	-11.9609	
12.2206	-55.8167	192.41	-12.4794	
12.2256	-56.5124	194.332	-12.4032	
12.2306	-57.1655	196.308	-12.0385	
12.2356	-57.8832	198.202	-12.2827	
12.2406	-58.6796	200.098	-12.7996	
12.2456	-59.4471	202.142	-12.6729	
12.2506	-60.1812	204.251	-12.255	
12.2556	-60.9829	206.26	-12.4666	
12.2605	-61.8455	208.221	-12.9758	
12.2655	-62.6758	210.313	-12.8661	
12.2705	-63.4842	212.485	-12.4538	
12.2755	-64.3587	214.591	-12.6594	
12.2805	-65.3141	216.716	-13.1575	
12.2855	-66.272	219.027	-13.0114	
12.2905	-67.2385	221.467	-12.571	
12.2955	-68.2935	223.856	-12.7751	
12.3005	-69.4211	226.252	-13.2704	
12.3055	-70.5504	228.811	-13.1241	
12.3105	-71.6675	231.446	-12.67	
12.3155	-72.8273	233.973	-12.851	
12.3205	-74.0545	236.462	-13.331	
12.3254	-75.2768	239.079	-13.1368	
12.3304	-76.4642	241.711	-12.6296	
12.3354	-77.6684	244.188	-12.8033	
12.3404	-78.9106	246.586	-13.2865	
12.3454	-80.1383	249.057	-13.0928	
12.3504	-81.3286	251.558	-12.574	
12.3554	-82.5505	253.922	-12.7238	
12.3604	-83.8344	256.236	-13.1827	
12.3654	-85.115	258.674	-12.9465	
12.3704	-86.3589	261.136	-12.3929	
12.3754	-87.6223	263.456	-12.5378	
12.3804	-88.9263	265.702	-13.006	
12.3854	-90.2135	268.029	-12.7571	
12.3903	-91.439	270.352	-12.1784	
12.3953	-92.6499	272.474	-12.3082	
12.4003	-93.8708	274.464	-12.7637	
12.4053	-95.0645	276.531	-12.4951	
12.4103	-96.2106	278.608	-11.8881	
12.4153	-97.356	280.52	-12.0121	
12.4203	-98.5522	282.372	-12.4741	
12.4253	-99.767	284.362	-12.2119	
12.4303	-100.986	286.446	-11.5966	
12.4353	-102.256	288.47	-11.6918	
12.4403	-103.61	290.499	-12.1263	
12.4453	-105.02	292.72	-11.8127	
12.4502	-106.452	295.056	-11.1539	
12.4552	-107.912	297.303	-11.2444	
12.4602	-109.42	299.496	-11.6754	
12.4652	-110.954	301.782	-11.354	
12.4702	-112.454	304.085	-10.6996	
12.4752	-113.939	306.251	-10.8007	
12.4802	-115.473	308.36	-11.2426	
12.4852	-117.028	310.586	-10.933	
12.4902	-118.569	312.867	-10.275	
12.4952	-120.096	315.011	-10.3705	
12.5002	-121.653	317.086	-10.8097	
12.5052	-123.267	319.287	-10.4937	
12.5102	-124.869	321.539	-9.82471	
12.5151	-126.443	323.658	-9.90601	
12.5201	-128.052	325.713	-10.3272	
12.5251	-129.725	327.88	-9.98206	
12.5301	-131.411	330.134	-9.28558	
12.5351	-133.088	332.295	-9.34528	
12.5401	-134.828	334.414	-9.74683	
12.5451	-136.639	336.646	-9.38159	
12.5501	-138.426	338.901	-8.67682	
12.5551	-140.131	340.986	-8.72467	
12.5601	-141.801	342.952	-9.10077	
12.5651	-143.492	344.951	-8.72296	
12.5701	-145.11	346.905	-8.01355	
12.575	-146.594	348.653	-8.07849	
12.58	-148.031	350.262	-8.50073	
12.585	-149.48	351.929	-8.18195	
12.59	-150.889	353.612	-7.51532	
12.595	-152.216	355.143	-7.58386	
12.6	-153.561	356.602	-7.99384	
12.605	-154.985	358.187	-7.64826	
12.61	-156.404	359.842	-6.97766	
12.615	-157.777	361.38	-7.06232	
12.62	-159.198	362.878	-7.46222	
12.625	-160.741	364.538	-7.1073	
12.63	-162.304	366.29	-6.42413	
12.635	-163.803	367.926	-6.48151	
12.6399	-165.324	369.503	-6.87293	
12.6449	-166.942	371.206	-6.51599	
12.6499	-168.549	372.966	-5.81867	
12.6549	-170.056	374.573	-5.86597	
12.6599	-171.573	376.098	-6.25134	
12.6649	-173.178	377.744	-5.90668	
12.6699	-174.762	379.431	-5.21362	
12.6749	-176.232	380.963	-5.25818	
12.6799	-177.688	382.414	-5.63867	
12.6849	-179.246	383.979	-5.27301	
12.6899	-180.782	385.593	-4.57733	
12.6949	-182.215	387.069	-4.64221	
12.6999	-183.675	388.47	-5.04071	
12.7048	-185.218	389.981	-4.67847	
12.7098	-186.721	391.515	-3.98041	
12.7148	-188.089	392.872	-4.02869	
12.7198	-189.406	394.114	-4.42712	
12.7248	-190.788	395.446	-4.08484	
12.7298	-192.145	396.826	-3.40595	
12.7348	-193.36	398.041	-3.47626	
12.7398	-194.559	399.159	-3.89075	
12.7448	-195.858	400.404	-3.58814	
12.7498	-197.133	401.695	-2.95984	
12.7548	-198.283	402.833	-3.05823	
12.7598	-199.442	403.893	-3.48395	
12.7647	-200.717	405.076	-3.17096	
12.7697	-201.974	406.323	-2.53473	
12.7747	-203.088	407.426	-2.64539	
12.7797	-204.198	408.445	-3.08679	
12.7847	-205.422	409.583	-2.80585	
12.7897	-206.626	410.771	-2.19666	
12.7947	-207.689	411.804	-2.29791	
12.7997	-208.738	412.759	-2.70923	
12.8047	-209.919	413.831	-2.39679	
12.8097	-211.093	414.963	-1.77332	
12.8147	-212.116	415.95	-1.86847	
12.8197	-213.14	416.858	-2.29932	
12.8247	-214.305	417.904	-2.02191	
12.8296	-215.47	419.021	-1.4118	
12.8346	-216.501	420.01	-1.49677	
12.8396	-217.549	420.936	-1.89984	
12.8446	-218.743	421.991	-1.6051	
12.8496	-219.922	423.125	-0.986206	
12.8546	-220.953	424.122	-1.08087	
12.8596	-221.993	425.024	-1.50452	
12.8646	-223.163	426.053	-1.21973	
12.8696	-224.302	427.126	-0.616089	
12.8746	-225.263	428.035	-0.693176	
12.8796	-226.2	428.85	-1.08868	
12.8846	-227.255	429.773	-0.812927	
12.8896	-228.282	430.747	-0.226624	
12.8945	-229.168	431.568	-0.338074	
12.8995	-230.039	432.307	-0.7724	
12.9045	-231.05	433.18	-0.514648	
12.9095	-232.037	434.124	0.0737305	
12.9145	-232.851	434.897	-0.0148315	
12.9195	-233.667	435.581	-0.427673	
12.9245	-234.614	436.402	-0.154175	
12.9295	-235.546	437.287	0.430725	
12.9345	-236.331	438.027	0.305115	
12.9395	-237.112	438.677	-0.125122	
12.9445	-238.021	439.47	0.133301	
12.9495	-238.923	440.333	0.690491	
12.9544	-239.656	441.027	0.590942	
12.9594	-240.365	441.617	0.181824	
12.9644	-241.217	442.34	0.436035	
12.9694	-242.043	443.134	1.00098	
12.9744	-242.691	443.767	0.885193	
12.9794	-243.34	444.303	0.45929	
12.9844	-244.144	444.974	0.710632	
12.9894	-244.945	445.724	1.2724	
12.9944	-245.581	446.332	1.16956	
12.9994	-246.221	446.865	0.757202	
13.0044	-247.028	447.543	1.01166	
13.0094	-247.847	448.304	1.5802	
13.0144	-248.522	448.92	1.46643	
13.0193	-249.196	449.463	1.02753	
13.0243	-250.037	450.182	1.25122	
13.0293	-250.906	450.985	1.80811	
13.0343	-251.645	451.653	1.71613	
13.0393	-252.409	452.27	1.29657	
13.0443	-253.359	453.057	1.53265	
13.0493	-254.324	453.954	2.07886	
13.0543	-255.142	454.72	1.95569	
13.0593	-255.963	455.397	1.51752	
13.0643	-256.934	456.203	1.73199	
13.0693	-257.893	457.101	2.25476	
13.0743	-258.674	457.833	2.12756	
13.0792	-259.438	458.446	1.6969	
13.0842	-260.337	459.191	1.93005	
13.0892	-261.208	460.007	2.46594	
13.0942	-261.897	460.663	2.33875	
13.0992	-262.578	461.206	1.90118	
13.1042	-263.393	461.868	2.11194	
13.1092	-264.182	462.601	2.63617	
13.1142	-264.8	463.169	2.52899	
13.1192	-265.405	463.636	2.11176	
13.1242	-266.166	464.255	2.31976	
13.1292	-266.924	464.97	2.83655	
13.1342	-267.498	465.528	2.71545	
13.1392	-268.056	465.981	2.28961	
13.1441	-268.787	466.571	2.48456	
13.1491	-269.529	467.245	2.99176	
13.1541	-270.111	467.783	2.88348	
13.1591	-270.692	468.247	2.46057	
13.1641	-271.447	468.871	2.66821	
13.1691	-272.216	469.588	3.17419	
13.1741	-272.814	470.165	3.04742	
13.1791	-273.411	470.66	2.61786	
13.1841	-274.181	471.302	2.80328	
13.1891	-274.963	472.047	3.29547	
13.1941	-275.581	472.632	3.19116	
13.1991	-276.181	473.109	2.78864	
13.2041	-276.944	473.743	2.98645	
13.209	-277.71	474.462	3.47974	
13.214	-278.302	475.031	3.38092	
13.219	-278.904	475.495	2.97632	
13.224	-279.676	476.102	3.16541	
13.229	-280.448	476.802	3.66394	
13.234	-281.054	477.333	3.56567	
13.239	-281.633	477.754	3.1637	
13.244	-282.364	478.312	3.35382	
13.249	-283.074	478.943	3.83319	
13.254	-283.584	479.406	3.70996	
13.259	-284.064	479.742	3.28491	
13.264	-284.69	480.206	3.46692	
13.2689	-285.309	480.76	3.96912	
13.2739	-285.724	481.139	3.87396	
13.2789	-286.104	481.408	3.47949	
13.2839	-286.654	481.823	3.65613	
13.2889	-287.211	482.326	4.12976	
13.2939	-287.592	482.7	4.01929	
13.2989	-287.987	482.993	3.59522	
13.3039	-288.583	483.441	3.75855	
13.3089	-289.209	484.015	4.23303	
13.3139	-289.678	484.46	4.13214	
13.3189	-290.166	484.809	3.72766	
13.3239	-290.854	485.327	3.89441	
13.3289	-291.557	485.958	4.35022	
13.3338	-292.099	486.449	4.23346	
13.3388	-292.643	486.85	3.81476	
13.3438	-293.354	487.401	3.9635	
13.3488	-294.063	488.059	4.4317	
13.3538	-294.607	488.554	4.34003	
13.3588	-295.117	488.932	3.94385	
13.3638	-295.772	489.45	4.10974	
13.3688	-296.43	490.043	4.58789	
13.3738	-296.903	490.477	4.50317	
13.3788	-297.342	490.795	4.10754	
13.3838	-297.934	491.257	4.27203	
13.3888	-298.55	491.836	4.73712	
13.3938	-298.995	492.272	4.65167	
13.3987	-299.426	492.594	4.26813	
13.4037	-300.05	493.049	4.42804	
13.4087	-300.666	493.611	4.88428	
13.4137	-301.089	494.027	4.797	
13.4187	-301.491	494.337	4.39838	
13.4237	-302.041	494.784	4.53833	
13.4287	-302.593	495.335	4.97815	
13.4337	-302.971	495.729	4.88898	
13.4387	-303.318	495.993	4.50336	
13.4437	-303.818	496.392	4.63995	
13.4487	-304.332	496.881	5.07855	
13.4537	-304.665	497.209	4.97717	
13.4586	-304.958	497.426	4.578	
13.4636	-305.413	497.791	4.7229	
13.4686	-305.888	498.268	5.16382	
13.4736	-306.181	498.593	5.07153	
13.4786	-306.453	498.8	4.68372	
13.4836	-306.899	499.147	4.81799	
13.4886	-307.36	499.606	5.24933	
13.4936	-307.65	499.924	5.16351	
13.4986	-307.909	500.12	4.77765	
13.5036	-308.336	500.463	4.89764	
13.5086	-308.796	500.927	5.32526	
13.5136	-309.097	501.24	5.24799	
13.5186	-309.362	501.432	4.86182	
13.5235	-309.8	501.778	4.99847	
13.5285	-310.27	502.26	5.43726	
13.5335	-310.573	502.59	5.35419	
13.5385	-310.86	502.793	4.97022	
13.5435	-311.303	503.141	5.10889	
13.5485	-311.765	503.606	5.56134	
13.5535	-312.058	503.914	5.50964	
13.5585	-312.309	504.09	5.14502	
13.5635	-312.711	504.409	5.27753	
13.5685	-313.134	504.848	5.71094	
13.5735	-313.383	505.119	5.6286	
13.5785	-313.592	505.257	5.22821	
13.5834	-313.954	505.537	5.33917	
13.5884	-314.337	505.934	5.76349	
13.5934	-314.555	506.18	5.67847	
13.5984	-314.735	506.301	5.28174	
13.6034	-315.062	506.572	5.38873	
13.6084	-315.418	506.954	5.80658	
13.6134	-315.618	507.2	5.70093	
13.6184	-315.78	507.329	5.27387	
13.6234	-316.111	507.597	5.36499	
13.6284	-316.479	507.998	5.77081	
13.6334	-316.666	508.25	5.69458	
13.6384	-316.813	508.364	5.30853	
13.6434	-317.127	508.623	5.39533	
13.6483	-317.488	509.002	5.81097	
13.6533	-317.685	509.229	5.74262	
13.6583	-317.825	509.346	5.3526	
13.6633	-318.135	509.6	5.44959	
13.6683	-318.493	509.962	5.86975	
13.6733	-318.687	510.189	5.81549	
13.6783	-318.851	510.288	5.44885	
13.6833	-319.174	510.528	5.55414	
13.6883	-319.534	510.897	5.96411	
13.6933	-319.746	511.12	5.9035	
13.6983	-319.927	511.231	5.5163	
13.7033	-320.266	511.492	5.6051	
13.7083	-320.639	511.873	6.02332	
13.7132	-320.855	512.129	5.96716	
13.7182	-321.03	512.264	5.57452	
13.7232	-321.365	512.523	5.64087	
13.7282	-321.742	512.913	6.03668	
13.7332	-321.965	513.167	5.97156	
13.7382	-322.136	513.29	5.58661	
13.7432	-322.456	513.546	5.65955	
13.7482	-322.835	513.917	6.06342	
13.7532	-323.047	514.145	6.00916	
13.7582	-323.195	514.246	5.62494	
13.7632	-323.508	514.483	5.6955	
13.7682	-323.872	514.841	6.08106	
13.7731	-324.069	515.078	6.0163	
13.7781	-324.212	515.198	5.63489	
13.7831	-324.504	515.445	5.70337	
13.7881	-324.855	515.811	6.104	
13.7931	-325.052	516.033	6.05457	
13.7981	-325.177	516.12	5.66516	
13.8031	-325.45	516.336	5.72498	
13.8081	-325.786	516.685	6.11035	
13.8131	-325.955	516.895	6.05188	
13.8181	-326.051	516.97	5.67841	
13.8231	-326.31	517.189	5.75165	
13.8281	-326.635	517.539	6.15649	
13.8331	-326.803	517.734	6.1153	
13.838	-326.904	517.805	5.75092	
13.843	-327.154	518.007	5.83008	
13.848	-327.469	518.346	6.2511	
13.853	-327.65	518.571	6.21503	
13.858	-327.779	518.659	5.81775	
13.863	-328.068	518.882	5.8667	
13.868	-328.44	519.21	6.24658	
13.873	-328.656	519.408	6.19861	
13.878	-328.795	519.465	5.81244	
13.883	-329.075	519.635	5.84467	
13.888	-329.423	519.947	6.21777	
13.893	-329.617	520.109	6.15466	
13.898	-329.721	520.141	5.74457	
13.9029	-329.94	520.315	5.76874	
13.9079	-330.233	520.612	6.1366	
13.9129	-330.392	520.763	6.09869	
13.9179	-330.457	520.776	5.72131	
13.9229	-330.666	520.931	5.75061	
13.9279	-330.957	521.211	6.12482	
13.9329	-331.097	521.359	6.0777	
13.9379	-331.169	521.372	5.69519	
13.9429	-331.399	521.519	5.73438	
13.9479	-331.718	521.814	6.12189	
13.9529	-331.906	521.978	6.10724	
13.9579	-332.007	522.011	5.73908	
13.9628	-332.249	522.183	5.77582	
13.9678	-332.586	522.498	6.16376	
13.9728	-332.778	522.674	6.1355	
13.9778	-332.878	522.716	5.75049	
13.9828	-333.13	522.903	5.80182	
13.9878	-333.465	523.228	6.21161	
13.9928	-333.648	523.417	6.19788	
13.9978	-333.736	523.459	5.83417	
14.0028	-333.959	523.64	5.86755	
14.0078	-334.27	523.958	6.24658	
14.0128	-334.453	524.133	6.22467	
14.0178	-334.553	524.155	5.85706	
14.0228	-334.772	524.313	5.89996	
14.0277	-335.065	524.626	6.29303	
14.0327	-335.217	524.809	6.27448	
14.0377	-335.265	524.838	5.89996	
14.0427	-335.44	524.998	5.90979	
14.0477	-335.706	525.303	6.2738	
14.0527	-335.835	525.458	6.25098	
14.0577	-335.869	525.479	5.87317	
14.0627	-336.037	525.63	5.90253	
14.0677	-336.309	525.908	6.29236	
14.0727	-336.433	526.047	6.27643	
14.0777	-336.44	526.041	5.91174	
14.0827	-336.589	526.171	5.94659	
14.0876	-336.833	526.447	6.32459	
14.0926	-336.935	526.591	6.30743	
14.0976	-336.939	526.588	5.94696	
14.1026	-337.084	526.719	5.98901	
14.1076	-337.344	526.99	6.38104	
14.1126	-337.467	527.121	6.38501	
14.1176	-337.474	527.114	6.03503	
14.1226	-337.625	527.225	6.05872	
14.1276	-337.899	527.494	6.4375	
14.1326	-338.033	527.642	6.42523	
14.1376	-338.057	527.634	6.04834	
14.1426	-338.226	527.77	6.07745	
14.1476	-338.486	528.054	6.45783	
14.1525	-338.597	528.211	6.43933	
14.1575	-338.605	528.193	6.06012	
14.1625	-338.754	528.301	6.06372	
14.1675	-339.023	528.583	6.43213	
14.1725	-339.139	528.711	6.41486	
14.1775	-339.124	528.686	6.03565	
14.1825	-339.248	528.8	6.04022	
14.1875	-339.485	529.052	6.41406	
14.1925	-339.577	529.183	6.4126	
14.1975	-339.539	529.164	6.04492	
14.2025	-339.637	529.266	6.04126	
14.2075	-339.843	529.532	6.40051	
14.2125	-339.908	529.667	6.37891	
14.2174	-339.864	529.64	5.98682	
14.2224	-339.966	529.722	5.99799	
14.2274	-340.2	529.951	6.38269	
14.2324	-340.29	530.059	6.38702	
14.2374	-340.246	530.015	6.03369	
14.2424	-340.359	530.09	6.05646	
14.2474	-340.614	530.311	6.45691	
14.2524	-340.742	530.424	6.48279	
14.2574	-340.746	530.379	6.1333	
14.2624	-340.883	530.466	6.15259	
14.2674	-341.161	530.709	6.55133	
14.2724	-341.292	530.825	6.57221	
14.2773	-341.251	530.824	6.18482	
14.2823	-341.345	530.956	6.15155	
14.2873	-341.574	531.24	6.47498	
14.2923	-341.669	531.392	6.42389	
14.2973	-341.658	531.371	5.99677	
14.3023	-341.783	531.46	5.94977	
14.3073	-342.039	531.697	6.31525	
14.3123	-342.154	531.819	6.33722	
14.3173	-342.134	531.785	5.98517	
14.3223	-342.248	531.866	6.00519	
14.3273	-342.505	532.109	6.39331	
14.3323	-342.607	532.246	6.38373	
14.3373	-342.549	532.214	5.98004	
14.3422	-342.647	532.291	5.94794	
14.3472	-342.901	532.52	6.32886	
14.3522	-343.012	532.622	6.37628	
14.3572	-342.953	532.582	6.04639	
14.3622	-343.054	532.658	6.06641	
14.3672	-343.32	532.888	6.43231	
14.3722	-343.433	533.002	6.43915	
14.3772	-343.399	532.956	6.07483	
14.3822	-343.493	533.041	6.073	
14.3872	-343.745	533.293	6.45416	
14.3922	-343.866	533.406	6.48212	
14.3972	-343.8	533.365	6.13001	
14.4022	-343.862	533.482	6.10797	
14.4071	-344.107	533.73	6.47406	
14.4121	-344.239	533.838	6.47742	
14.4171	-344.231	533.798	6.07062	
14.4221	-344.373	533.85	6.03265	
14.4271	-344.665	534.051	6.40466	
14.4321	-344.812	534.141	6.4068	
14.4371	-344.802	534.076	6.00104	
14.4421	-344.91	534.145	5.94293	
14.4471	-345.167	534.369	6.28809	
14.4521	-345.284	534.47	6.3053	
14.4571	-345.236	534.415	5.95172	
14.4621	-345.332	534.476	5.9411	
14.467	-345.589	534.692	6.30542	
14.472	-345.699	534.796	6.30933	
14.477	-345.629	534.749	5.91357	
14.482	-345.694	534.814	5.88727	
14.487	-345.935	535.038	6.29395	
14.492	-346.044	535.143	6.36279	
14.497	-346.001	535.073	6.01032	
14.502	-346.094	535.121	5.98785	
14.507	-346.332	535.342	6.37341	
14.512	-346.423	535.444	6.41016	
14.517	-346.345	535.379	6.03601	
14.522	-346.417	535.429	6.00464	
14.527	-346.671	535.635	6.38214	
14.5319	-346.766	535.725	6.43036	
14.5369	-346.684	535.655	6.06787	
14.5419	-346.722	535.709	6.04077	
14.5469	-346.906	535.923	6.41522	
14.5519	-346.984	536.017	6.44342	
14.5569	-346.881	535.963	6.05432	
14.5619	-346.887	536.029	6.00397	
14.5669	-347.081	536.247	6.36975	
14.5719	-347.152	536.343	6.40588	
14.5769	-347.049	536.266	6.02228	
14.5819	-347.078	536.313	5.98254	
14.5869	-347.286	536.527	6.36853	
14.5918	-347.345	536.621	6.41303	
14.5968	-347.219	536.564	6.04816	
14.6018	-347.235	536.62	5.99805	
14.6068	-347.426	536.824	6.35498	
14.6118	-347.492	536.917	6.39899	
14.6168	-347.377	536.852	6.01758	
14.6218	-347.391	536.895	5.97662	
14.6268	-347.587	537.113	6.37158	
14.6318	-347.63	537.218	6.42889	
14.6368	-347.488	537.159	6.05487	
14.6418	-347.512	537.204	5.99988	
14.6468	-347.738	537.384	6.36041	
14.6518	-347.836	537.443	6.41095	
14.6567	-347.731	537.364	6.05243	
14.6617	-347.739	537.419	6.01807	
14.6667	-347.936	537.618	6.41693	
14.6717	-348.003	537.703	6.48688	
14.6767	-347.875	537.625	6.11414	
14.6817	-347.892	537.655	6.07001	
14.6867	-348.101	537.862	6.46179	
14.6917	-348.168	537.959	6.51441	
14.6967	-348.038	537.891	6.14264	
14.7017	-348.034	537.916	6.09351	
14.7067	-348.24	538.116	6.45203	
14.7117	-348.317	538.192	6.48303	
14.7167	-348.168	538.088	6.0816	
14.7216	-348.135	538.145	5.99744	
14.7266	-348.32	538.36	6.35407	
14.7316	-348.378	538.438	6.39142	
14.7366	-348.224	538.368	5.99219	
14.7416	-348.209	538.409	5.91522	
14.7466	-348.405	538.6	6.28272	
14.7516	-348.483	538.67	6.34619	
14.7566	-348.348	538.573	5.97052	
14.7616	-348.335	538.601	5.90308	
14.7666	-348.54	538.801	6.29199	
14.7716	-348.611	538.887	6.37103	
14.7766	-348.491	538.784	6.00409	
14.7815	-348.518	538.782	5.97174	
14.7865	-348.726	538.969	6.36823	
14.7915	-348.804	539.054	6.42322	
14.7965	-348.672	538.968	6.02606	
14.8015	-348.657	538.999	5.94635	
14.8065	-348.859	539.204	6.32294	
14.8115	-348.933	539.295	6.38782	
14.8165	-348.795	539.206	5.99323	
14.8215	-348.77	539.237	5.9032	
14.8265	-348.965	539.438	6.27014	
14.8315	-349.032	539.51	6.32086	
14.8365	-348.882	539.421	5.93298	
14.8415	-348.884	539.442	5.86334	
14.8464	-349.091	539.631	6.23145	
14.8514	-349.153	539.715	6.30029	
14.8564	-349.01	539.621	5.91296	
14.8614	-348.995	539.638	5.82172	
14.8664	-349.212	539.818	6.19891	
14.8714	-349.301	539.88	6.26489	
14.8764	-349.142	539.795	5.85944	
14.8814	-349.109	539.827	5.77393	
14.8864	-349.309	540.017	6.14203	
14.8914	-349.381	540.084	6.20856	
14.8964	-349.232	539.985	5.84674	
14.9014	-349.215	540.003	5.7995	
14.9064	-349.427	540.189	6.20087	
14.9113	-349.532	540.254	6.27814	
14.9163	-349.416	540.133	5.88477	
14.9213	-349.415	540.13	5.82349	
14.9263	-349.642	540.307	6.23322	
14.9313	-349.747	540.375	6.32251	
14.9363	-349.611	540.272	5.95026	
14.9413	-349.611	540.273	5.88013	
14.9463	-349.85	540.441	6.26666	
14.9513	-349.944	540.51	6.3515	
14.9563	-349.799	540.423	5.98944	
14.9613	-349.785	540.425	5.92383	
14.9663	-350.014	540.598	6.29895	
14.9712	-350.112	540.681	6.36743	
14.9762	-349.967	540.555	5.96985	
14.9812	-349.949	540.546	5.87402	
14.9862	-350.165	540.746	6.25555	
14.9912	-350.24	540.815	6.31744	
14.9962	-350.084	540.697	5.89728	
15.0012	-350.066	540.711	5.80481	
15.0062	-350.276	540.896	6.18274	
15.0112	-350.348	540.957	6.24341	
15.0162	-350.18	540.857	5.84595	
15.0212	-350.14	540.874	5.7594	
15.0262	-350.337	541.063	6.15082	
15.0312	-350.407	541.134	6.23413	
15.0361	-350.243	541.018	5.83765	
15.0411	-350.209	541.024	5.75372	
15.0461	-350.423	541.196	6.15344	
15.0511	-350.521	541.253	6.24805	
15.0561	-350.364	541.149	5.88367	
15.0611	-350.314	541.152	5.83667	
15.0661	-350.507	541.332	6.25226	
15.0711	-350.581	541.41	6.35162	
15.0761	-350.445	541.288	5.9419	
15.0811	-350.476	541.252	5.83667	
15.0861	-350.753	541.395	6.23932	
15.0911	-350.872	541.441	6.33771	
15.096	-350.71	541.321	5.9436	
15.101	-350.654	541.325	5.85712	
15.106	-350.843	541.515	6.26025	
15.111	-350.894	541.612	6.36054	
15.116	-350.673	541.542	5.96686	
15.121	-350.59	541.569	5.8617	
15.126	-350.798	541.744	6.24365	
15.131	-350.881	541.801	6.33057	
15.136	-350.694	541.694	5.93713	
15.141	-350.637	541.691	5.84467	
15.146	-350.842	541.869	6.24213	
15.151	-350.902	541.951	6.35535	
15.156	-350.686	541.853	5.98187	
15.1609	-350.62	541.854	5.88141	
15.1659	-350.836	542.024	6.26154	
15.1709	-350.915	542.094	6.35626	
15.1759	-350.712	541.983	5.95978	
15.1809	-350.66	541.974	5.85907	
15.1859	-350.884	542.144	6.26862	
15.1909	-350.949	542.203	6.37756	
15.1959	-350.737	542.099	5.98169	
15.2009	-350.67	542.108	5.88788	
15.2059	-350.876	542.295	6.28455	
15.2109	-350.943	542.369	6.39563	
15.2159	-350.743	542.261	6.02716	
15.2209	-350.675	542.268	5.95013	
15.2258	-350.886	542.444	6.35571	
15.2308	-350.969	542.508	6.46271	
15.2358	-350.767	542.39	6.0871	
15.2408	-350.692	542.374	6.00989	
15.2458	-350.897	542.566	6.39575	
15.2508	-350.964	542.652	6.48071	
15.2558	-350.769	542.541	6.08167	
15.2608	-350.719	542.545	5.9643	
15.2658	-350.937	542.723	6.3457	
15.2708	-351.009	542.788	6.43793	
15.2758	-350.798	542.679	6.02069	
15.2808	-350.717	542.702	5.90173	
15.2857	-350.917	542.896	6.29376	
15.2907	-350.984	542.965	6.38715	
15.2957	-350.766	542.869	5.97339	
15.3007	-350.692	542.868	5.87207	
15.3057	-350.896	543.048	6.28125	
15.3107	-350.966	543.128	6.38355	
15.3157	-350.772	543.01	5.9834	
15.3207	-350.716	542.999	5.87586	
15.3257	-350.936	543.18	6.2785	
15.3307	-351.024	543.244	6.39966	
15.3357	-350.827	543.131	6.00671	
15.3407	-350.763	543.128	5.89771	
15.3457	-351.003	543.286	6.3169	
15.3506	-351.112	543.334	6.44574	
15.3556	-350.922	543.2	6.052	
15.3606	-350.878	543.169	5.95508	
15.3656	-351.128	543.335	6.37616	
15.3706	-351.226	543.401	6.50037	
15.3756	-351.042	543.278	6.08948	
15.3806	-350.993	543.259	5.97797	
15.3856	-351.22	543.421	6.40082	
15.3906	-351.313	543.483	6.51178	
15.3956	-351.106	543.372	6.09314	
15.4006	-351.022	543.376	5.97119	
15.4056	-351.246	543.559	6.37518	
15.4106	-351.349	543.617	6.49237	
15.4155	-351.146	543.501	6.08045	
15.4205	-351.086	543.49	5.95166	
15.4255	-351.324	543.651	6.34985	
15.4305	-351.399	543.718	6.4624	
15.4355	-351.16	543.612	6.0354	
15.4405	-351.064	543.617	5.91364	
15.4455	-351.282	543.808	6.33911	
15.4505	-351.369	543.88	6.46411	
15.4555	-351.157	543.763	6.04785	
15.4605	-351.092	543.755	5.90723	
15.4655	-351.327	543.921	6.29474	
15.4705	-351.422	543.984	6.40064	
15.4754	-351.216	543.868	5.98712	
15.4804	-351.148	543.855	5.87384	
15.4854	-351.405	544.025	6.29144	
15.4904	-351.519	544.087	6.41858	
15.4954	-351.304	543.956	6.00134	
15.5004	-351.232	543.949	5.87256	
15.5054	-351.48	544.131	6.30255	
15.5104	-351.602	544.17	6.44202	
15.5154	-351.448	544.027	6.0462	
15.5204	-351.438	543.989	5.92084	
15.5254	-351.724	544.138	6.31787	
15.5304	-351.879	544.197	6.43622	
15.5354	-351.694	544.053	6.02423	
15.5403	-351.636	544.006	5.90228	
15.5453	-351.909	544.16	6.29401	
15.5503	-352.024	544.227	6.37256	
15.5553	-351.818	544.097	5.91211	
15.5603	-351.763	544.075	5.76288	
15.5653	-352.03	544.242	6.15131	
15.5703	-352.155	544.289	6.25971	
15.5753	-351.943	544.156	5.84155	
15.5803	-351.876	544.136	5.71338	
15.5853	-352.14	544.298	6.13855	
15.5903	-352.243	544.371	6.26441	
15.5953	-352.011	544.261	5.83637	
15.6002	-351.934	544.231	5.71234	
15.6052	-352.183	544.389	6.14215	
15.6102	-352.286	544.453	6.2865	
15.6152	-352.074	544.325	5.88001	
15.6202	-351.996	544.302	5.75098	
15.6252	-352.244	544.475	6.17828	
15.6302	-352.37	544.537	6.32233	
15.6352	-352.152	544.402	5.91699	
15.6402	-352.081	544.372	5.8006	
15.6452	-352.352	544.534	6.22211	
15.6502	-352.467	544.586	6.33612	
15.6552	-352.242	544.458	5.89179	
15.6602	-352.143	544.456	5.73828	
15.6651	-352.358	544.634	6.15259	
15.6701	-352.436	544.707	6.28058	
15.6751	-352.195	544.607	5.84467	
15.6801	-352.096	544.598	5.70355	
15.6851	-352.345	544.757	6.12909	
15.6901	-352.454	544.828	6.27503	
15.6951	-352.212	544.712	5.85339	
15.7001	-352.119	544.688	5.70984	
15.7051	-352.36	544.858	6.13446	
15.7101	-352.458	544.931	6.29126	
15.7151	-352.211	544.821	5.86987	
15.7201	-352.094	544.818	5.71851	
15.7251	-352.328	544.998	6.15967	
15.73	-352.423	545.072	6.30878	
15.735	-352.175	544.947	5.86517	
15.74	-352.08	544.921	5.71246	
15.745	-352.318	545.091	6.1413	
15.75	-352.407	545.172	6.28845	
15.755	-352.168	545.062	5.86231	
15.76	-352.066	545.043	5.71643	
15.765	-352.301	545.217	6.13135	
15.77	-352.389	545.3	6.28113	
15.775	-352.123	545.186	5.87543	
15.78	-352.012	545.165	5.73328	
15.785	-352.259	545.327	6.16583	
15.7899	-352.354	545.383	6.31891	
15.7949	-352.1	545.255	5.87866	
15.7999	-351.999	545.23	5.72528	
15.8049	-352.246	545.384	6.1593	
15.8099	-352.359	545.43	6.31256	
15.8149	-352.126	545.271	5.89233	
15.8199	-352.028	545.211	5.75098	
15.8249	-352.281	545.352	6.18659	
15.8299	-352.376	545.403	6.32806	
15.8349	-352.114	545.266	5.88489	
15.8399	-352.015	545.219	5.74121	
15.8449	-352.274	545.371	6.17853	
15.8499	-352.377	545.426	6.3291	
15.8548	-352.121	545.273	5.8996	
15.8598	-352.016	545.22	5.75208	
15.8648	-352.265	545.363	6.18909	
15.8698	-352.367	545.408	6.33362	
15.8748	-352.11	545.269	5.89026	
15.8798	-352.002	545.227	5.73499	
15.8848	-352.269	545.378	6.17535	
15.8898	-352.379	545.426	6.33447	
15.8948	-352.113	545.276	5.89874	
15.8998	-352.015	545.215	5.74768	
15.9048	-352.275	545.353	6.18048	
15.9098	-352.375	545.408	6.32886	
15.9148	-352.112	545.271	5.89179	
15.9197	-352.003	545.223	5.7417	
15.9247	-352.267	545.368	6.1875	
15.9297	-352.378	545.425	6.34674	
15.9347	-352.11	545.279	5.90314	
15.9397	-352.003	545.22	5.74121	
15.9447	-352.272	545.362	6.18469	
15.9497	-352.375	545.416	6.34564	
15.9547	-352.111	545.276	5.90814	
15.9597	-352.006	545.231	5.74304	
15.9647	-352.265	545.374	6.17468	
15.9697	-352.368	545.428	6.34546	
15.9747	-352.104	545.279	5.90576	
15.9796	-351.999	545.212	5.73785	
15.9846	-352.268	545.356	6.18189	
15.9896	-352.366	545.417	6.34827	
15.9946	-352.099	545.286	5.90601	
15.9996	-351.995	545.234	5.73138	
16.0046	-352.255	545.366	6.17078	
16.0096	-352.368	545.419	6.34796	
16.0146	-352.106	545.274	5.90649	
16.0196	-351.998	545.221	5.73706	
16.0246	-352.265	545.369	6.18237	
16.0296	-352.374	545.418	6.34644	
16.0346	-352.098	545.278	5.89899	
16.0396	-351.982	545.233	5.7301	
16.0445	-352.257	545.375	6.18366	
16.0495	-352.376	545.432	6.36621	
16.0545	-352.113	545.285	5.92108	
16.0595	-351.996	545.214	5.73962	
16.0645	-352.263	545.355	6.18152	
16.0695	-352.375	545.424	6.35248	
16.0745	-352.099	545.289	5.89642	
16.0795	-351.992	545.234	5.7243	
16.0845	-352.267	545.375	6.17523	
16.0895	-352.376	545.423	6.34943	
16.0945	-352.103	545.273	5.91168	
16.0995	-351.987	545.216	5.73981	
16.1044	-352.248	545.362	6.18097	
16.1094	-352.363	545.416	6.34772	
16.1144	-352.101	545.275	5.89368	
16.1194	-351.991	545.225	5.71948	
16.1244	-352.271	545.372	6.18427	
16.1294	-352.387	545.431	6.36987	
16.1344	-352.105	545.276	5.90411	
16.1394	-351.984	545.21	5.71942	
16.1444	-352.258	545.36	6.17859	
16.1494	-352.37	545.422	6.35492	
16.1544	-352.098	545.281	5.9021	
16.1594	-351.985	545.232	5.7276	
16.1644	-352.262	545.378	6.17694	
16.1693	-352.384	545.429	6.35986	
16.1743	-352.1	545.275	5.90643	
16.1793	-351.97	545.213	5.72748	
16.1843	-352.251	545.364	6.18579	
16.1893	-352.376	545.428	6.36096	
16.1943	-352.102	545.283	5.89752	
16.1993	-351.989	545.229	5.71674	
16.2043	-352.265	545.377	6.17621	
16.2093	-352.38	545.436	6.36298	
16.2143	-352.101	545.289	5.90888	
16.2193	-351.983	545.225	5.72138	
16.2243	-352.266	545.369	6.17951	
16.2293	-352.387	545.425	6.36682	
16.2342	-352.1	545.286	5.90936	
16.2392	-351.977	545.233	5.7171	
16.2442	-352.257	545.377	6.18048	
16.2492	-352.379	545.43	6.37946	
16.2542	-352.105	545.277	5.91492	
16.2592	-351.984	545.216	5.71368	
16.2642	-352.262	545.366	6.17316	
16.2692	-352.383	545.433	6.37396	
16.2742	-352.097	545.295	5.91119	
16.2792	-351.976	545.239	5.71051	
16.2842	-352.262	545.377	6.17285	
16.2892	-352.382	545.429	6.36585	
16.2941	-352.091	545.279	5.91101	
16.2991	-351.974	545.216	5.72369	
16.3041	-352.264	545.365	6.18323	
16.3091	-352.38	545.431	6.37482	
16.3141	-352.093	545.29	5.90881	
16.3191	-351.977	545.24	5.70837	
16.3241	-352.264	545.388	6.17316	
16.3291	-352.383	545.43	6.37671	
16.3341	-352.095	545.274	5.91339	
16.3391	-351.975	545.216	5.70801	
16.3441	-352.268	545.363	6.17505	
16.3491	-352.39	545.43	6.38623	
16.3541	-352.094	545.291	5.92078	
16.359	-351.965	545.235	5.71155	
16.364	-352.258	545.386	6.17212	
16.369	-352.386	545.444	6.37708	
16.374	-352.091	545.291	5.9173	
16.379	-351.965	545.225	5.71869	
16.384	-352.262	545.373	6.18195	
16.389	-352.384	545.436	6.37238	
16.394	-352.085	545.29	5.8988	
16.399	-351.962	545.241	5.70068	
16.404	-352.255	545.391	6.17407	
16.409	-352.384	545.435	6.38562	
16.414	-352.094	545.283	5.91974	
16.419	-351.968	545.225	5.71472	
16.4239	-352.258	545.372	6.17841	
16.4289	-352.381	545.437	6.36987	
16.4339	-352.083	545.298	5.8996	
16.4389	-351.955	545.236	5.70294	
16.4439	-352.26	545.383	6.18408	
16.4489	-352.385	545.444	6.38861	
16.4539	-352.089	545.286	5.91162	
16.4589	-351.966	545.219	5.70722	
16.4639	-352.257	545.373	6.17371	
16.4689	-352.384	545.438	6.37793	
16.4739	-352.087	545.296	5.90454	
16.4789	-351.959	545.242	5.70087	
16.4838	-352.259	545.387	6.18646	
16.4888	-352.393	545.447	6.39368	
16.4938	-352.09	545.291	5.90747	
16.4988	-351.957	545.219	5.69794	
16.5038	-352.258	545.366	6.17243	
16.5088	-352.382	545.443	6.37878	
16.5138	-352.085	545.31	5.90167	
16.5188	-351.962	545.242	5.69226	
16.5238	-352.264	545.379	6.17993	
16.5288	-352.392	545.442	6.39484	
16.5338	-352.085	545.292	5.91815	
16.5388	-351.957	545.225	5.70538	
16.5438	-352.257	545.378	6.17267	
16.5487	-352.377	545.445	6.38013	
16.5537	-352.082	545.298	5.90485	
16.5587	-351.965	545.24	5.69629	
16.5637	-352.264	545.385	6.18384	
16.5687	-352.388	545.438	6.39581	
16.5737	-352.086	545.29	5.90747	
16.5787	-351.956	545.229	5.68579	
16.5837	-352.262	545.378	6.1673	
16.5887	-352.393	545.45	6.38446	
16.5937	-352.086	545.309	5.90283	
16.5987	-351.957	545.243	5.69556	
16.6037	-352.261	545.382	6.17981	
16.6086	-352.387	545.433	6.39642	
16.6136	-352.085	545.282	5.91351	
16.6186	-351.957	545.229	5.69611	
16.6236	-352.257	545.383	6.17157	
16.6286	-352.387	545.451	6.38403	
16.6336	-352.085	545.308	5.91107	
16.6386	-351.954	545.239	5.70117	
16.6436	-352.262	545.373	6.18182	
16.6486	-352.395	545.429	6.3941	
16.6536	-352.085	545.285	5.92096	
16.6586	-351.951	545.219	5.70416	
16.6636	-352.253	545.375	6.17481	
16.6686	-352.385	545.45	6.39307	
16.6735	-352.084	545.303	5.91187	
16.6785	-351.954	545.239	5.70087	
16.6835	-352.263	545.385	6.18646	
16.6885	-352.392	545.443	6.39551	
16.6935	-352.083	545.283	5.90686	
16.6985	-351.961	545.215	5.68744	
16.7035	-352.268	545.374	6.16534	
16.7085	-352.392	545.452	6.38104	
16.7135	-352.087	545.3	5.91095	
16.7185	-351.95	545.222	5.70349	
16.7235	-352.253	545.366	6.18292	
16.7285	-352.385	545.437	6.39868	
16.7335	-352.08	545.284	5.91888	
16.7384	-351.953	545.213	5.70587	
16.7434	-352.258	545.377	6.18805	
16.7484	-352.385	545.452	6.39166	
16.7534	-352.08	545.302	5.90796	
16.7584	-351.957	545.228	5.70111	
16.7634	-352.265	545.373	6.18512	
16.7684	-352.389	545.442	6.39368	
16.7734	-352.078	545.287	5.90454	
16.7784	-351.949	545.214	5.69122	
16.7834	-352.258	545.376	6.18146	
16.7884	-352.387	545.453	6.40808	
16.7934	-352.077	545.301	5.92127	
16.7983	-351.945	545.233	5.68726	
16.8033	-352.26	545.38	6.16858	
16.8083	-352.389	545.444	6.39447	
16.8133	-352.078	545.289	5.90717	
16.8183	-351.956	545.219	5.68713	
16.8233	-352.265	545.369	6.17963	
16.8283	-352.391	545.447	6.40326	
16.8333	-352.079	545.307	5.91931	
16.8383	-351.948	545.24	5.69312	
16.8433	-352.267	545.385	6.1767	
16.8483	-352.399	545.444	6.40314	
16.8533	-352.078	545.29	5.91791	
16.8583	-351.939	545.219	5.69074	
16.8632	-352.253	545.374	6.16889	
16.8682	-352.395	545.453	6.39636	
16.8732	-352.085	545.307	5.91711	
16.8782	-351.951	545.226	5.69006	
16.8832	-352.27	545.369	6.17871	
16.8882	-352.405	545.445	6.40918	
16.8932	-352.08	545.297	5.91431	
16.8982	-351.946	545.228	5.68457	
16.9032	-352.259	545.382	6.17224	
16.9082	-352.383	545.451	6.3963	
16.9132	-352.075	545.303	5.92102	
16.9182	-351.945	545.242	5.70166	
16.9232	-352.254	545.392	6.17322	
16.9281	-352.379	545.449	6.39026	
16.9331	-352.068	545.293	5.90967	
16.9381	-351.949	545.22	5.68787	
16.9431	-352.267	545.374	6.17877	
16.9481	-352.396	545.461	6.40393	
16.9531	-352.08	545.306	5.91388	
16.9581	-351.947	545.222	5.68634	
16.9631	-352.264	545.377	6.17389	
16.9681	-352.395	545.45	6.40167	
16.9731	-352.074	545.293	5.91119	
16.9781	-351.943	545.224	5.68689	
16.9831	-352.263	545.384	6.18317	
16.988	-352.387	545.46	6.40497	
16.993	-352.067	545.306	5.90717	
16.998	-351.943	545.227	5.68488	
17.003	-352.264	545.371	6.17664	
17.008	-352.399	545.441	6.40595	
17.013	-352.083	545.292	5.91907	
17.018	-351.943	545.214	5.68683	
17.023	-352.252	545.372	6.16986	
17.028	-352.393	545.463	6.40094	
17.033	-352.066	545.308	5.91516	
17.038	-351.922	545.224	5.68225	
17.043	-352.258	545.37	6.16901	
17.048	-352.395	545.439	6.39935	
17.0529	-352.075	545.285	5.91406	
17.0579	-351.944	545.213	5.68982	
17.0629	-352.258	545.381	6.18414	
17.0679	-352.386	545.462	6.40564	
17.0729	-352.064	545.301	5.90015	
17.0779	-351.932	545.221	5.67853	
17.0829	-352.261	545.375	6.19183	
17.0879	-352.4	545.45	6.42194	
17.0929	-352.08	545.296	5.91498	
17.0979	-351.945	545.222	5.67383	
17.1029	-352.261	545.381	6.16522	
17.1079	-352.396	545.465	6.40228	
17.1128	-352.072	545.312	5.91003	
17.1178	-351.938	545.228	5.68408	
17.1228	-352.266	545.372	6.19086	
17.1278	-352.405	545.449	6.41992	
17.1328	-352.082	545.293	5.91162	
17.1378	-351.947	545.216	5.67542	
17.1428	-352.266	545.377	6.16797	
17.1478	-352.396	545.461	6.39563	
17.1528	-352.072	545.311	5.91321	
17.1578	-351.945	545.228	5.68878	
17.1628	-352.273	545.371	6.1806	
17.1678	-352.402	545.443	6.41303	
17.1728	-352.067	545.294	5.91913	
17.1777	-351.932	545.223	5.68243	
17.1827	-352.262	545.381	6.17078	
17.1877	-352.394	545.466	6.40631	
17.1927	-352.081	545.313	5.91608	
17.1977	-351.955	545.231	5.68604	
17.2027	-352.273	545.376	6.18207	
17.2077	-352.4	545.448	6.40985	
17.2127	-352.065	545.302	5.90411	
17.2177	-351.934	545.229	5.67377	
17.2227	-352.267	545.382	6.1756	
17.2277	-352.398	545.456	6.40839	
17.2327	-352.072	545.31	5.92468	
17.2377	-351.938	545.232	5.69598	
17.2426	-352.254	545.369	6.17041	
17.2476	-352.391	545.448	6.40216	
17.2526	-352.072	545.295	5.91919	
17.2576	-351.939	545.217	5.68066	
17.2626	-352.275	545.382	6.17047	
17.2676	-352.408	545.467	6.40576	
17.2726	-352.073	545.31	5.90979	
17.2776	-351.948	545.224	5.68091	
17.2826	-352.275	545.372	6.17835	
17.2876	-352.395	545.449	6.41168	
17.2926	-352.065	545.297	5.91675	
17.2976	-351.935	545.222	5.68164	
17.3025	-352.268	545.388	6.1814	
17.3075	-352.402	545.475	6.41516	
17.3125	-352.072	545.307	5.9198	
17.3175	-351.938	545.21	5.68445	
17.3225	-352.274	545.358	6.17914	
17.3275	-352.406	545.455	6.40894	
17.3325	-352.067	545.306	5.90906	
17.3375	-351.936	545.216	5.67737	
17.3425	-352.27	545.382	6.17682	
17.3475	-352.399	545.473	6.40979	
17.3525	-352.063	545.314	5.9126	
17.3575	-351.932	545.226	5.68439	
17.3625	-352.262	545.37	6.1828	
17.3674	-352.393	545.449	6.41339	
17.3724	-352.065	545.303	5.90845	
17.3774	-351.938	545.222	5.66937	
17.3824	-352.28	545.379	6.18073	
17.3874	-352.407	545.47	6.42066	
17.3924	-352.058	545.313	5.91718	
17.3974	-351.926	545.215	5.68433	
17.4024	-352.275	545.368	6.17908	
17.4074	-352.41	545.454	6.41046	
17.4124	-352.07	545.308	5.91693	
17.4174	-351.935	545.224	5.68549	
17.4224	-352.27	545.374	6.17999	
17.4274	-352.4	545.468	6.41669	
17.4323	-352.062	545.315	5.91614	
17.4373	-351.934	545.223	5.67493	
17.4423	-352.268	545.374	6.16626	
17.4473	-352.395	545.459	6.39569	
17.4523	-352.064	545.302	5.91425	
17.4573	-351.937	545.219	5.69226	
17.4623	-352.268	545.379	6.17523	
17.4673	-352.394	545.471	6.40387	
17.4723	-352.051	545.314	5.91888	
17.4773	-351.924	545.212	5.6864	
17.4823	-352.276	545.363	6.18128	
17.4873	-352.407	545.458	6.41022	
17.4922	-352.069	545.307	5.91675	
17.4972	-351.938	545.225	5.68518	
17.5022	-352.264	545.381	6.17017	
17.5072	-352.391	545.464	6.40527	
17.5122	-352.056	545.313	5.91412	
17.5172	-351.93	545.222	5.68121	
17.5222	-352.28	545.369	6.18176	
17.5272	-352.403	545.462	6.41882	
17.5322	-352.058	545.305	5.92139	
17.5372	-351.933	545.212	5.6817	
17.5422	-352.26	545.381	6.16022	
17.5472	-352.385	545.474	6.39014	
17.5522	-352.058	545.313	5.91693	
17.5571	-351.936	545.224	5.69092	
17.5621	-352.276	545.379	6.17975	
17.5671	-352.402	545.468	6.40686	
17.5721	-352.063	545.307	5.90704	
17.5771	-351.933	545.217	5.67792	
17.5821	-352.261	545.383	6.17188	
17.5871	-352.383	545.477	6.4054	
17.5921	-352.059	545.319	5.92297	
17.5971	-351.942	545.22	5.69397	
17.6021	-352.278	545.368	6.18201	
17.6071	-352.399	545.463	6.40711	
17.6121	-352.055	545.309	5.91321	
17.617	-351.925	545.216	5.68433	
17.622	-352.269	545.382	6.17725	
17.627	-352.4	545.481	6.41028	
17.632	-352.065	545.32	5.92175	
17.637	-351.942	545.221	5.69183	
17.642	-352.278	545.367	6.17407	
17.647	-352.395	545.461	6.40888	
17.652	-352.047	545.313	5.91931	
17.657	-351.927	545.221	5.67572	
17.662	-352.275	545.374	6.17395	
17.667	-352.398	545.469	6.4115	
17.672	-352.054	545.321	5.91821	
17.677	-351.932	545.221	5.68311	
17.6819	-352.27	545.358	6.16925	
17.6869	-352.393	545.455	6.40198	
17.6919	-352.062	545.311	5.92163	
17.6969	-351.941	545.213	5.68524	
17.7019	-352.281	545.369	6.16876	
17.7069	-352.404	545.478	6.4118	
17.7119	-352.059	545.329	5.91718	
17.7169	-351.935	545.221	5.68024	
17.7219	-352.273	545.364	6.17352	
17.7269	-352.396	545.457	6.41303	
17.7319	-352.058	545.31	5.93128	
17.7369	-351.932	545.222	5.68115	
17.7419	-352.266	545.382	6.16235	
17.7468	-352.393	545.482	6.41174	
17.7518	-352.057	545.318	5.92889	
17.7568	-351.934	545.209	5.69385	
17.7618	-352.279	545.362	6.18262	
17.7668	-352.399	545.46	6.41632	
17.7718	-352.052	545.31	5.9281	
17.7768	-351.929	545.213	5.69037	
17.7818	-352.267	545.372	6.1712	
17.7868	-352.387	545.473	6.4082	
17.7918	-352.054	545.314	5.92981	
17.7968	-351.939	545.208	5.68933	
17.8018	-352.285	545.367	6.16516	
17.8067	-352.4	545.466	6.39819	
17.8117	-352.048	545.304	5.92114	
17.8167	-351.927	545.212	5.6944	
17.8217	-352.278	545.381	6.1698	
17.8267	-352.401	545.487	6.39661	
17.8317	-352.06	545.319	5.92139	
17.8367	-351.939	545.207	5.69342	
17.8417	-352.276	545.365	6.1673	
17.8467	-352.395	545.47	6.39807	
17.8517	-352.045	545.313	5.92401	
17.8567	-351.922	545.214	5.69135	
17.8617	-352.273	545.369	6.17554	
17.8667	-352.398	545.476	6.41138	
17.8716	-352.053	545.32	5.92706	
17.8766	-351.931	545.21	5.69257	
17.8816	-352.276	545.367	6.17163	
17.8866	-352.394	545.469	6.40051	
17.8916	-352.052	545.306	5.91901	
17.8966	-351.937	545.207	5.6872	
17.9016	-352.278	545.373	6.16925	
17.9066	-352.395	545.483	6.41321	
17.9116	-352.046	545.325	5.92639	
17.9166	-351.928	545.207	5.68323	
17.9216	-352.28	545.352	6.16296	
17.9266	-352.399	545.46	6.40314	
17.9316	-352.051	545.315	5.93134	
17.9365	-351.931	545.213	5.69592	
17.9415	-352.272	545.371	6.17883	
17.9465	-352.391	545.48	6.40912	
17.9515	-352.05	545.319	5.92542	
17.9565	-351.933	545.209	5.69446	
17.9615	-352.278	545.36	6.17188	
17.9665	-352.391	545.465	6.40588	
17.9715	-352.048	545.317	5.9328	
17.9765	-351.937	545.216	5.69769	
17.9815	-352.273	545.366	6.16736	
17.9865	-352.385	545.469	6.39929	
17.9915	-352.051	545.32	5.93164	
17.9964	-351.936	545.208	5.70258	
18.0014	-352.281	545.354	6.16602	
18.0064	-352.403	545.458	6.39343	
18.0114	-352.053	545.315	5.92548	
18.0164	-351.931	545.216	5.69373	
18.0214	-352.272	545.372	6.16357	
18.0264	-352.39	545.481	6.40332	
18.0314	-352.051	545.32	5.93854	
18.0364	-351.931	545.205	5.69464	
18.0414	-352.273	545.354	6.15576	
18.0464	-352.389	545.462	6.3938	
18.0514	-352.044	545.314	5.93298	
18.0564	-351.93	545.213	5.69995	
18.0613	-352.276	545.37	6.16315	
18.0663	-352.391	545.484	6.39899	
18.0713	-352.047	545.326	5.94434	
18.0763	-351.936	545.205	5.70599	
18.0813	-352.274	545.354	6.15839	
18.0863	-352.386	545.468	6.38898	
18.0913	-352.044	545.318	5.92627	
18.0963	-351.93	545.212	5.69275	
18.1013	-352.283	545.369	6.15888	
18.1063	-352.397	545.475	6.39948	
18.1113	-352.042	545.319	5.94257	
18.1163	-351.928	545.203	5.70349	
18.1212	-352.272	545.355	6.15021	
18.1262	-352.387	545.468	6.38141	
18.1312	-352.051	545.321	5.93262	
18.1362	-351.933	545.215	5.71014	
18.1412	-352.269	545.365	6.16223	
18.1462	-352.389	545.479	6.38788	
18.1512	-352.049	545.331	5.93091	
18.1562	-351.927	545.207	5.69629	
18.1612	-352.276	545.352	6.15405	
18.1662	-352.392	545.465	6.38782	
18.1712	-352.047	545.317	5.93848	
18.1762	-351.936	545.217	5.70734	
18.1812	-352.27	545.375	6.15192	
18.1861	-352.375	545.483	6.38208	
18.1911	-352.037	545.321	5.93488	
18.1961	-351.941	545.204	5.7096	
18.2011	-352.283	545.357	6.16638	
18.2061	-352.385	545.474	6.39142	
18.2111	-352.04	545.325	5.92902	
18.2161	-351.934	545.208	5.70606	
18.2211	-352.278	545.361	6.15595	
18.2261	-352.386	545.489	6.38959	
18.2311	-352.049	545.335	5.9494	
18.2361	-351.937	545.202	5.71039	
18.2411	-352.281	545.347	6.15888	
18.2461	-352.392	545.47	6.39459	
18.251	-352.048	545.334	5.94092	
18.256	-351.937	545.225	5.70197	
18.261	-352.273	545.372	6.14008	
18.266	-352.389	545.49	6.37494	
18.271	-352.058	545.34	5.94733	
18.276	-351.946	545.205	5.71246	
18.281	-352.28	545.34	6.14716	
18.286	-352.385	545.467	6.37683	
18.291	-352.044	545.335	5.93604	
18.296	-351.938	545.221	5.70941	
18.301	-352.273	545.367	6.14618	
18.306	-352.381	545.481	6.38587	
18.3109	-352.059	545.332	5.95532	
18.3159	-351.956	545.213	5.71253	
18.3209	-352.279	545.349	6.14282	
18.3259	-352.379	545.468	6.36945	
18.3309	-352.043	545.326	5.93512	
18.3359	-351.936	545.217	5.7143	
18.3409	-352.276	545.379	6.16132	
18.3459	-352.382	545.496	6.39429	
18.3509	-352.049	545.335	5.95239	
18.3559	-351.95	545.201	5.72058	
18.3609	-352.28	545.344	6.14172	
18.3659	-352.379	545.473	6.36603	
18.3709	-352.05	545.334	5.94025	
18.3758	-351.95	545.22	5.71051	
18.3808	-352.283	545.369	6.1471	
18.3858	-352.39	545.483	6.37756	
18.3908	-352.048	545.328	5.94721	
18.3958	-351.932	545.197	5.71857	
18.4008	-352.275	545.347	6.14197	
18.4058	-352.379	545.479	6.3689	
18.4108	-352.045	545.327	5.95306	
18.4158	-351.942	545.215	5.73145	
18.4208	-352.273	545.375	6.14905	
18.4258	-352.385	545.485	6.37866	
18.4308	-352.05	545.333	5.95087	
18.4358	-351.938	545.204	5.71393	
18.4407	-352.278	545.344	6.13928	
18.4457	-352.387	545.479	6.36676	
18.4507	-352.049	545.341	5.94336	
18.4557	-351.943	545.222	5.72864	
18.4607	-352.271	545.368	6.15692	
18.4657	-352.379	545.48	6.37903	
18.4707	-352.054	545.327	5.95288	
18.4757	-351.947	545.2	5.71735	
18.4807	-352.281	545.352	6.12994	
18.4857	-352.38	545.479	6.36054	
18.4907	-352.045	545.338	5.94183	
18.4957	-351.951	545.227	5.71607	
18.5006	-352.271	545.366	6.13959	
18.5056	-352.371	545.485	6.36578	
18.5106	-352.053	545.337	5.95258	
18.5156	-351.95	545.202	5.72113	
18.5206	-352.275	545.345	6.133	
18.5256	-352.38	545.484	6.36621	
18.5306	-352.053	545.349	5.95636	
18.5356	-351.948	545.227	5.72705	
18.5406	-352.278	545.366	6.13947	
18.5456	-352.375	545.485	6.37256	
18.5506	-352.051	545.341	5.96216	
18.5556	-351.946	545.206	5.72516	
18.5606	-352.259	545.344	6.12262	
18.5655	-352.365	545.479	6.35266	
18.5705	-352.05	545.348	5.95599	
18.5755	-351.952	545.221	5.72882	
18.5805	-352.273	545.358	6.13745	
18.5855	-352.374	545.482	6.36762	
18.5905	-352.056	545.339	5.96332	
18.5955	-351.951	545.208	5.73175	
18.6005	-352.263	545.347	6.12299	
18.6055	-352.369	545.483	6.35535	
18.6105	-352.054	545.352	5.96661	
18.6155	-351.952	545.218	5.73621	
18.6205	-352.275	545.352	6.12506	
18.6255	-352.374	545.476	6.35162	
18.6304	-352.051	545.334	5.95911	
18.6354	-351.952	545.212	5.72876	
18.6404	-352.27	545.354	6.11914	
18.6454	-352.367	545.488	6.35248	
18.6504	-352.051	545.349	5.97174	
18.6554	-351.953	545.22	5.73999	
18.6604	-352.267	545.358	6.12055	
18.6654	-352.364	545.485	6.34815	
18.6704	-352.054	545.342	5.96088	
18.6754	-351.952	545.201	5.73132	
18.6804	-352.267	545.341	6.11285	
18.6854	-352.379	545.48	6.34528	
18.6903	-352.063	545.348	5.96552	
18.6953	-351.954	545.218	5.73578	
18.7003	-352.262	545.351	6.1117	
18.7053	-352.364	545.48	6.33667	
18.7103	-352.057	545.342	5.96143	
18.7153	-351.965	545.21	5.73779	
18.7203	-352.275	545.352	6.12488	
18.7253	-352.364	545.479	6.35303	
18.7303	-352.054	545.34	5.96582	
18.7353	-351.958	545.211	5.73505	
18.7403	-352.269	545.35	6.11481	
18.7453	-352.369	545.483	6.34113	
18.7503	-352.063	545.339	5.96857	
18.7552	-351.961	545.203	5.74091	
18.7602	-352.261	545.343	6.11401	
18.7652	-352.361	545.481	6.34393	
18.7702	-352.054	545.349	5.96399	
18.7752	-351.958	545.218	5.73718	
18.7802	-352.271	545.352	6.11896	
18.7852	-352.363	545.478	6.34857	
18.7902	-352.059	545.338	5.97363	
18.7952	-351.963	545.202	5.73871	
18.8002	-352.259	545.335	6.10449	
18.8052	-352.36	545.48	6.33783	
18.8102	-352.059	545.362	5.9718	
18.8151	-351.959	545.222	5.7467	
18.8201	-352.263	545.347	6.12055	
18.8251	-352.361	545.489	6.34607	
18.8301	-352.067	545.349	5.97199	
18.8351	-351.97	545.203	5.73932	
18.8401	-352.253	545.34	6.1062	
18.8451	-352.341	545.485	6.34375	
18.8501	-352.053	545.361	5.98529	
18.8551	-351.961	545.223	5.74536	
18.8601	-352.254	545.347	6.09845	
18.8651	-352.352	545.48	6.33991	
18.8701	-352.059	545.342	5.98364	
18.8751	-351.964	545.196	5.74518	
18.88	-352.265	545.334	6.099	
18.885	-352.36	545.487	6.33453	
18.89	-352.06	545.361	5.98853	
18.895	-351.964	545.223	5.75055	
18.9	-352.253	545.347	6.09766	
18.905	-352.345	545.478	6.33911	
18.91	-352.054	545.349	5.99146	
18.915	-351.969	545.207	5.74982	
18.92	-352.269	545.336	6.09222	
18.925	-352.355	545.483	6.32715	
18.93	-352.06	545.365	5.98096	
18.935	-351.968	545.223	5.74695	
18.94	-352.257	545.348	6.09168	
18.9449	-352.36	545.476	6.33222	
18.9499	-352.074	545.335	5.99213	
18.9549	-351.972	545.202	5.75104	
18.9599	-352.261	545.342	6.08899	
18.9649	-352.357	545.485	6.32788	
18.9699	-352.061	545.365	5.98767	
18.9749	-351.965	545.222	5.75311	
18.9799	-352.26	545.338	6.0965	
18.9849	-352.359	545.479	6.33545	
18.9899	-352.077	545.345	5.9989	
18.9949	-351.983	545.202	5.75201	
18.9999	-352.256	545.341	6.08069	
19.0048	-352.346	545.492	6.3208	
19.0098	-352.063	545.364	6.00086	
19.0148	-351.972	545.221	5.76819	
19.0198	-352.255	545.347	6.09204	
19.0248	-352.342	545.479	6.32361	
19.0298	-352.074	545.343	5.98901	
19.0348	-351.982	545.2	5.74481	
19.0398	-352.249	545.334	6.07416	
19.0448	-352.346	545.493	6.32172	
19.0498	-352.066	545.372	6.00378	
19.0548	-351.973	545.218	5.77173	
19.0598	-352.257	545.337	6.09143	
19.0648	-352.354	545.477	6.31964	
19.0697	-352.078	545.352	5.99652	
19.0747	-351.987	545.216	5.75195	
19.0797	-352.25	545.343	6.05853	
19.0847	-352.339	545.489	6.31165	
19.0897	-352.077	545.367	6.01898	
19.0947	-351.982	545.219	5.77631	
19.0997	-352.247	545.331	6.08502	
19.1047	-352.342	545.474	6.32617	
19.1097	-352.069	545.363	6.00519	
19.1147	-351.971	545.208	5.75464	
19.1197	-352.247	545.328	6.06732	
19.1247	-352.351	545.497	6.3136	
19.1297	-352.092	545.382	6.00806	
19.1346	-351.992	545.223	5.77118	
19.1396	-352.248	545.336	6.07086	
19.1446	-352.342	545.476	6.31091	
19.1496	-352.081	545.347	6.00494	
19.1546	-351.986	545.206	5.75421	
19.1596	-352.247	545.335	6.06274	
19.1646	-352.344	545.488	6.32233	
19.1696	-352.077	545.371	6.02289	
19.1746	-351.975	545.22	5.76538	
19.1796	-352.239	545.334	6.05957	
19.1846	-352.342	545.479	6.30805	
19.1896	-352.085	545.36	6.00861	
19.1945	-351.988	545.213	5.76331	
19.1995	-352.249	545.338	6.06427	
19.2045	-352.348	545.493	6.31055	
19.2095	-352.086	545.375	6.01538	
19.2145	-351.978	545.225	5.76898	
19.2195	-352.233	545.341	6.05536	
19.2245	-352.334	545.482	6.29651	
19.2295	-352.086	545.36	6.01666	
19.2345	-351.992	545.212	5.77747	
19.2395	-352.239	545.33	6.05963	
19.2445	-352.335	545.486	6.31165	
19.2495	-352.087	545.37	6.02942	
19.2545	-351.993	545.217	5.77362	
19.2594	-352.244	545.334	6.05023	
19.2644	-352.344	545.478	6.29926	
19.2694	-352.097	545.356	6.0307	
19.2744	-351.997	545.208	5.7782	
19.2794	-352.238	545.334	6.04816	
19.2844	-352.326	545.496	6.30621	
19.2894	-352.083	545.38	6.03143	
19.2944	-351.995	545.218	5.77588	
19.2994	-352.241	545.333	6.05011	
19.3044	-352.34	545.484	6.29474	
19.3094	-352.101	545.358	6.02057	
19.3144	-352.003	545.208	5.77478	
19.3193	-352.238	545.335	6.03467	
19.3243	-352.334	545.494	6.28369	
19.3293	-352.1	545.376	6.03339	
19.3343	-351.999	545.211	5.78803	
19.3393	-352.229	545.322	6.04529	
19.3443	-352.331	545.476	6.29169	
19.3493	-352.095	545.362	6.02429	
19.3543	-351.996	545.209	5.7735	
19.3593	-352.233	545.329	6.04443	
19.3643	-352.332	545.493	6.29767	
19.3693	-352.105	545.377	6.04065	
19.3743	-352.008	545.216	5.77795	
19.3793	-352.236	545.33	6.02423	
19.3842	-352.329	545.479	6.284	
19.3892	-352.099	545.359	6.03687	
19.3942	-352.002	545.209	5.78626	
19.3992	-352.231	545.327	6.03479	
19.4042	-352.321	545.488	6.29309	
19.4092	-352.095	545.379	6.0564	
19.4142	-352.001	545.214	5.79901	
19.4192	-352.222	545.322	6.02948	
19.4242	-352.326	545.482	6.28235	
19.4292	-352.108	545.368	6.03186	
19.4342	-352.013	545.208	5.77234	
19.4392	-352.233	545.327	6.02716	
19.4442	-352.321	545.494	6.29242	
19.4491	-352.1	545.378	6.05121	
19.4541	-352.01	545.212	5.78943	
19.4591	-352.225	545.326	6.01746	
19.4641	-352.323	545.484	6.27155	
19.4691	-352.112	545.362	6.04352	
19.4741	-352.009	545.208	5.78278	
19.4791	-352.221	545.328	6.00879	
19.4841	-352.316	545.492	6.28015	
19.4891	-352.099	545.381	6.05835	
19.4941	-352.006	545.215	5.79022	
19.4991	-352.229	545.326	6.01599	
19.5041	-352.327	545.488	6.27899	
19.509	-352.113	545.377	6.05286	
19.514	-352.01	545.211	5.78876	
19.519	-352.21	545.324	6.01044	
19.524	-352.312	545.487	6.27588	
19.529	-352.108	545.374	6.06671	
19.534	-352.007	545.216	5.80682	
19.539	-352.216	545.329	6.0213	
19.544	-352.313	545.486	6.28241	
19.549	-352.105	545.362	6.05115	
19.554	-352.009	545.204	5.77985	
19.559	-352.213	545.326	6.00543	
19.564	-352.309	545.495	6.28217	
19.569	-352.112	545.393	6.0755	
19.5739	-352.016	545.223	5.80786	
19.5789	-352.215	545.323	6.02155	
19.5839	-352.308	545.484	6.27454	
19.5889	-352.105	545.372	6.05518	
19.5939	-352.011	545.21	5.79675	
19.5989	-352.206	545.324	6.00299	
19.6039	-352.306	545.495	6.27142	
19.6089	-352.119	545.382	6.07336	
19.6139	-352.026	545.214	5.80365	
19.6189	-352.218	545.321	6.00201	
19.6239	-352.304	545.484	6.26569	
19.6289	-352.104	545.374	6.05591	
19.6339	-352.013	545.204	5.79743	
19.6388	-352.204	545.319	6.00305	
19.6438	-352.301	545.497	6.27191	
19.6488	-352.12	545.394	6.08325	
19.6538	-352.024	545.219	5.81104	
19.6588	-352.2	545.319	6.00214	
19.6638	-352.295	545.485	6.26233	
19.6688	-352.115	545.377	6.06116	
19.6738	-352.022	545.212	5.79437	
19.6788	-352.204	545.327	6.00079	
19.6838	-352.295	545.496	6.27582	
19.6888	-352.114	545.382	6.07147	
19.6938	-352.018	545.211	5.80176	
19.6987	-352.197	545.311	5.99378	
19.7037	-352.298	545.482	6.27179	
19.7087	-352.12	545.386	6.08856	
19.7137	-352.021	545.213	5.8092	
19.7187	-352.198	545.323	6.00024	
19.7237	-352.297	545.505	6.28113	
19.7287	-352.112	545.397	6.08814	
19.7337	-352.015	545.216	5.81128	
19.7387	-352.196	545.311	6.00012	
19.7437	-352.288	545.479	6.27631	
19.7487	-352.116	545.38	6.08875	
19.7537	-352.02	545.217	5.8009	
19.7587	-352.194	545.324	5.98535	
19.7636	-352.294	545.502	6.26691	
19.7686	-352.117	545.392	6.08563	
19.7736	-352.02	545.209	5.80615	
19.7786	-352.192	545.314	5.98425	
19.7836	-352.296	545.489	6.26312	
19.7886	-352.134	545.39	6.08313	
19.7936	-352.025	545.219	5.80768	
19.7986	-352.182	545.32	5.98572	
19.8036	-352.284	545.492	6.27173	
19.8086	-352.125	545.389	6.09601	
19.8136	-352.027	545.221	5.80798	
19.8186	-352.194	545.324	5.98547	
19.8235	-352.292	545.492	6.26215	
19.8285	-352.126	545.385	6.07947	
19.8335	-352.027	545.228	5.80023	
19.8385	-352.191	545.344	5.97791	
19.8435	-352.294	545.504	6.26276	
19.8485	-352.13	545.388	6.09558	
19.8535	-352.025	545.223	5.81421	
19.8585	-352.186	545.332	5.9801	
19.8635	-352.28	545.497	6.25562	
19.8685	-352.113	545.39	6.08209	
19.8735	-352.025	545.224	5.80859	
19.8785	-352.202	545.336	5.99042	
19.8835	-352.296	545.508	6.27075	
19.8884	-352.132	545.407	6.09772	
19.8934	-352.034	545.236	5.81146	
19.8984	-352.184	545.338	5.97742	
19.9034	-352.281	545.505	6.26202	
19.9084	-352.135	545.387	6.08795	
19.9134	-352.036	545.216	5.81213	
19.9184	-352.181	545.345	5.9964	
19.9234	-352.282	545.52	6.28131	
19.9284	-352.138	545.4	6.10419	
19.9334	-352.038	545.22	5.81043	
19.9384	-352.187	545.324	5.96484	
19.9434	-352.291	545.503	6.24646	
19.9484	-352.14	545.406	6.09088	
19.9533	-352.03	545.235	5.80274	
19.9583	-352.179	545.338	5.97382	
19.9633	-352.287	545.513	6.27136	
19.9683	-352.133	545.409	6.10706	
19.9733	-352.033	545.227	5.81421	
19.9783	-352.191	545.329	5.9715	
19.9833	-352.287	545.503	6.25903	
19.9883	-352.13	545.401	6.10736	
19.9933	-352.032	545.235	5.82373	
19.9983	-352.188	545.343	5.97473	
20.0033	-352.291	545.521	6.26532	
20.0083	-352.137	545.417	6.10999	
20.0132	-352.034	545.237	5.80957	
20.0182	-352.182	545.334	5.96271	
20.0232	-352.282	545.505	6.25909	
20.0282	-352.14	545.406	6.11096	
20.0332	-352.044	545.229	5.81836	
20.0382	-352.18	545.334	5.97351	
20.0432	-352.276	545.515	6.27301	
20.0482	-352.135	545.411	6.112	
20.0532	-352.032	545.237	5.80451	
20.0582	-352.18	545.343	5.95239	
20.0632	-352.285	545.512	6.25696	
20.0682	-352.139	545.402	6.11371	
20.0732	-352.042	545.231	5.81482	
20.0781	-352.178	545.342	5.9599	
20.0831	-352.276	545.518	6.26752	
20.0881	-352.137	545.409	6.12927	
20.0931	-352.037	545.228	5.8208	
20.0981	-352.183	545.331	5.95453	
20.1031	-352.283	545.505	6.25916	
20.1081	-352.141	545.405	6.11279	
20.1131	-352.034	545.236	5.81067	
20.1181	-352.175	545.341	5.96735	
20.1231	-352.276	545.516	6.26917	
20.1281	-352.132	545.416	6.11621	
20.1331	-352.032	545.242	5.81409	
20.1381	-352.175	545.335	5.96198	
20.143	-352.28	545.502	6.26135	
20.148	-352.136	545.399	6.11707	
20.153	-352.035	545.234	5.81506	
20.158	-352.181	545.344	5.95813	
20.163	-352.286	545.523	6.26672	
20.168	-352.146	545.419	6.11987	
20.173	-352.043	545.236	5.8075	
20.178	-352.184	545.335	5.95545	
20.183	-352.285	545.515	6.2572	
20.188	-352.145	545.414	6.10059	
20.193	-352.037	545.238	5.79749	
20.198	-352.179	545.347	5.95477	
20.2029	-352.293	545.525	6.27026	
20.2079	-352.155	545.409	6.12097	
20.2129	-352.045	545.227	5.80414	
20.2179	-352.177	545.336	5.95569	
20.2229	-352.28	545.512	6.27124	
20.2279	-352.138	545.408	6.12067	
20.2329	-352.034	545.231	5.80286	
20.2379	-352.179	545.337	5.94824	
20.2429	-352.287	545.518	6.26416	
20.2479	-352.151	545.417	6.11847	
20.2529	-352.043	545.235	5.80682	
20.2579	-352.176	545.326	5.95538	
20.2629	-352.279	545.497	6.26459	
20.2678	-352.143	545.409	6.11316	
20.2728	-352.041	545.249	5.8017	
20.2778	-352.178	545.348	5.96271	
20.2828	-352.279	545.515	6.27972	
20.2878	-352.147	545.414	6.12262	
20.2928	-352.049	545.233	5.8017	
20.2978	-352.181	545.329	5.95154	
20.3028	-352.283	545.513	6.26556	
20.3078	-352.148	545.407	6.10809	
20.3128	-352.035	545.229	5.79077	
20.3178	-352.168	545.339	5.94287	
20.3228	-352.283	545.522	6.27417	
20.3277	-352.151	545.418	6.13397	
20.3327	-352.039	545.228	5.80451	
20.3377	-352.174	545.323	5.94354	
20.3427	-352.278	545.5	6.26135	
20.3477	-352.146	545.405	6.11572	
20.3527	-352.044	545.24	5.79974	
20.3577	-352.177	545.344	5.94977	
20.3627	-352.285	545.518	6.27228	
20.3677	-352.15	545.411	6.12488	
20.3727	-352.034	545.223	5.79254	
20.3777	-352.171	545.32	5.92871	
20.3827	-352.281	545.499	6.25635	
20.3877	-352.152	545.407	6.12549	
20.3926	-352.051	545.247	5.80328	
20.3976	-352.178	545.351	5.94721	
20.4026	-352.282	545.522	6.2807	
20.4076	-352.145	545.423	6.13983	
20.4126	-352.034	545.239	5.80304	
20.4176	-352.171	545.33	5.92963	
20.4226	-352.282	545.506	6.25555	
20.4276	-352.156	545.41	6.12457	
20.4326	-352.047	545.241	5.80249	
20.4376	-352.173	545.347	5.9444	
20.4426	-352.282	545.519	6.276	
20.4476	-352.146	545.415	6.13617	
20.4526	-352.033	545.235	5.79858	
20.4575	-352.17	545.333	5.92853	
20.4625	-352.288	545.517	6.25879	
20.4675	-352.159	545.419	6.12012	
20.4725	-352.045	545.237	5.79541	
20.4775	-352.17	545.34	5.94891	
20.4825	-352.275	545.522	6.27124	
20.4875	-352.146	545.416	6.11731	
20.4925	-352.043	545.235	5.7937	
20.4975	-352.179	545.331	5.93176	
20.5025	-352.285	545.507	6.2616	
20.5075	-352.153	545.41	6.1189	
20.5125	-352.047	545.241	5.7912	
20.5174	-352.174	545.343	5.94769	
20.5224	-352.275	545.518	6.27869	
20.5274	-352.142	545.419	6.12317	
20.5324	-352.038	545.241	5.78375	
20.5374	-352.167	545.336	5.93353	
20.5424	-352.277	545.52	6.27142	
20.5474	-352.156	545.424	6.12531	
20.5524	-352.046	545.238	5.78217	
20.5574	-352.175	545.344	5.93012	
20.5624	-352.285	545.527	6.27594	
